E [keV], sigma [10^22 cm^-2]
 0.105      445.007
 0.115      353.531
 0.125      286.302
 0.135      235.640
 0.145      196.577
 0.155      165.833
 0.165      141.203
 0.175      121.172
 0.185      104.685
 0.195      90.9788
 0.205      79.4920
 0.215      69.7919
 0.225      61.5466
 0.235      54.4931
 0.245      48.4268
 0.255      43.1798
 0.265      38.6188
 0.275      34.6352
 0.285      34.0214
 0.295      32.6508
 0.305      29.6333
 0.315      26.9791
 0.325      24.6354
 0.335      22.5584
 0.345      20.7102
 0.355      19.0607
 0.365      17.5842
 0.375      16.2585
 0.385      15.0643
 0.395      13.9856
 0.405      13.5515
 0.415      12.6305
 0.425      11.7910
 0.435      11.0243
 0.445      10.3223
 0.455      9.67871
 0.465      9.08724
 0.475      8.54259
 0.485      8.04050
 0.495      7.57663
 0.505      7.14742
 0.515      6.74954
 0.525      6.38040
 0.535      9.20801
 0.545      9.68837
 0.555      9.22006
 0.565      8.78212
 0.575      8.37196
 0.585      7.98731
 0.595      7.62643
 0.605      7.28712
 0.615      6.96815
 0.625      6.66760
 0.635      6.38442
 0.645      6.11723
 0.655      5.86506
 0.665      5.62648
 0.675      5.40089
 0.685      5.18735
 0.695      4.98490
 0.705      4.94854
 0.715      5.11895
 0.725      4.92122
 0.735      4.73535
 0.745      4.56034
 0.755      4.39552
 0.765      4.24023
 0.775      4.09370
 0.785      3.95533
 0.795      3.82466
 0.805      3.70111
 0.815      3.58418
 0.825      3.47346
 0.835      3.36864
 0.845      3.26923
 0.855      3.17487
 0.865      3.22762
 0.875      3.46678
 0.885      3.36285
 0.895      3.26318
 0.905      3.16746
 0.915      3.07546
 0.925      2.98708
 0.935      2.90212
 0.945      2.82040
 0.955      2.74177
 0.965      2.66603
 0.975      2.59315
 0.985      2.52292
 0.995      2.45518
 1.005      2.38989
 1.015      2.32691
 1.025      2.26614
 1.035      2.20752
 1.045      2.15088
 1.055      2.09619
 1.065      2.04333
 1.075      1.99228
 1.085      1.94287
 1.095      1.89511
 1.105      1.84888
 1.115      1.80416
 1.125      1.76086
 1.135      1.71890
 1.145      1.67831
 1.155      1.63894
 1.165      1.60082
 1.175      1.56384
 1.185      1.52799
 1.195      1.49321
 1.205      1.45947
 1.215      1.42676
 1.225      1.39498
 1.235      1.36412
 1.245      1.33414
 1.255      1.30505
 1.265      1.27674
 1.275      1.24927
 1.285      1.22254
 1.295      1.19658
 1.305      1.23072
 1.315      1.23085
 1.325      1.20593
 1.335      1.18169
 1.345      1.15808
 1.355      1.13513
 1.365      1.11275
 1.375      1.09099
 1.385      1.06977
 1.395      1.04912
 1.405      1.02899
 1.415      1.00935
 1.425     0.990238
 1.435     0.971615
 1.445     0.953430
 1.455     0.935716
 1.465     0.918411
 1.475     0.901551
 1.485     0.885088
 1.495     0.869033
 1.505     0.853375
 1.515     0.838070
 1.525     0.823121
 1.535     0.808533
 1.545     0.794293
 1.555     0.780376
 1.565     0.766777
 1.575     0.753479
 1.585     0.740495
 1.595     0.727801
 1.605     0.715394
 1.615     0.703265
 1.625     0.691406
 1.635     0.679809
 1.645     0.668458
 1.655     0.657354
 1.665     0.646503
 1.675     0.635870
 1.685     0.625484
 1.695     0.615297
 1.705     0.605343
 1.715     0.595582
 1.725     0.586037
 1.735     0.576686
 1.745     0.567528
 1.755     0.558559
 1.765     0.549771
 1.775     0.541164
 1.785     0.532722
 1.795     0.524468
 1.805     0.516358
 1.815     0.508422
 1.825     0.500639
 1.835     0.493010
 1.845     0.538207
 1.855     0.530206
 1.865     0.522362
 1.875     0.514672
 1.885     0.507135
 1.895     0.499732
 1.905     0.492491
 1.915     0.485382
 1.925     0.478402
 1.935     0.471564
 1.945     0.464852
 1.955     0.458276
 1.965     0.451813
 1.975     0.445472
 1.985     0.439252
 1.995     0.433145
 2.005     0.427155
 2.015     0.421267
 2.025     0.415497
 2.035     0.409821
 2.045     0.404257
 2.055     0.398781
 2.065     0.393410
 2.075     0.388132
 2.085     0.382955
 2.095     0.377865
 2.105     0.372861
 2.115     0.367946
 2.125     0.363109
 2.135     0.358368
 2.145     0.353699
 2.155     0.349118
 2.165     0.344605
 2.175     0.340178
 2.185     0.335818
 2.195     0.331540
 2.205     0.327329
 2.215     0.323182
 2.225     0.319112
 2.235     0.315106
 2.245     0.311166
 2.255     0.307291
 2.265     0.303478
 2.275     0.299726
 2.285     0.296038
 2.295     0.292407
 2.305     0.288832
 2.315     0.285319
 2.325     0.281859
 2.335     0.278453
 2.345     0.275099
 2.355     0.271801
 2.365     0.268553
 2.375     0.265351
 2.385     0.262206
 2.395     0.259106
 2.405     0.256054
 2.415     0.253048
 2.425     0.250088
 2.435     0.247171
 2.445     0.244296
 2.455     0.241470
 2.465     0.238682
 2.475     0.254499
 2.485     0.253613
 2.495     0.250698
 2.505     0.247821
 2.515     0.244996
 2.525     0.242215
 2.535     0.239472
 2.545     0.236772
 2.555     0.234116
 2.565     0.231503
 2.575     0.228925
 2.585     0.226383
 2.595     0.223888
 2.605     0.221421
 2.615     0.218995
 2.625     0.216608
 2.635     0.214250
 2.645     0.211930
 2.655     0.209644
 2.665     0.207396
 2.675     0.205173
 2.685     0.202987
 2.695     0.200832
 2.705     0.198706
 2.715     0.196611
 2.725     0.194549
 2.735     0.192514
 2.745     0.190506
 2.755     0.188531
 2.765     0.186581
 2.775     0.184658
 2.785     0.182761
 2.795     0.180893
 2.805     0.179050
 2.815     0.177232
 2.825     0.175441
 2.835     0.173673
 2.845     0.171929
 2.855     0.170210
 2.865     0.168513
 2.875     0.166839
 2.885     0.165190
 2.895     0.163559
 2.905     0.161952
 2.915     0.160366
 2.925     0.158801
 2.935     0.157257
 2.945     0.155733
 2.955     0.154231
 2.965     0.152748
 2.975     0.151285
 2.985     0.149840
 2.995     0.148412
 3.005     0.147003
 3.015     0.145615
 3.025     0.144242
 3.035     0.142890
 3.045     0.141554
 3.055     0.140231
 3.065     0.138930
 3.075     0.137642
 3.085     0.136369
 3.095     0.135117
 3.105     0.133879
 3.115     0.132654
 3.125     0.131447
 3.135     0.130255
 3.145     0.129074
 3.155     0.127910
 3.165     0.126762
 3.175     0.125626
 3.185     0.124504
 3.195     0.123397
 3.205     0.122300
 3.215     0.124079
 3.225     0.122985
 3.235     0.121902
 3.245     0.120833
 3.255     0.119776
 3.265     0.118734
 3.275     0.117702
 3.285     0.116684
 3.295     0.115677
 3.305     0.114683
 3.315     0.113699
 3.325     0.112726
 3.335     0.111764
 3.345     0.110817
 3.355     0.109878
 3.365     0.108949
 3.375     0.108033
 3.385     0.107126
 3.395     0.106231
 3.405     0.105346
 3.415     0.104469
 3.425     0.103603
 3.435     0.102747
 3.445     0.101901
 3.455     0.101064
 3.465     0.100237
 3.475    0.0994186
 3.485    0.0986099
 3.495    0.0978087
 3.505    0.0970169
 3.515    0.0962355
 3.525    0.0954598
 3.535    0.0946956
 3.545    0.0939385
 3.555    0.0931898
 3.565    0.0924479
 3.575    0.0917153
 3.585    0.0909914
 3.595    0.0902744
 3.605    0.0895647
 3.615    0.0888639
 3.625    0.0881690
 3.635    0.0874820
 3.645    0.0868038
 3.655    0.0861306
 3.665    0.0854655
 3.675    0.0848078
 3.685    0.0841571
 3.695    0.0835119
 3.705    0.0828747
 3.715    0.0822443
 3.725    0.0816193
 3.735    0.0810013
 3.745    0.0803897
 3.755    0.0797847
 3.765    0.0791855
 3.775    0.0785916
 3.785    0.0780058
 3.795    0.0774237
 3.805    0.0768498
 3.815    0.0762807
 3.825    0.0757175
 3.835    0.0751601
 3.845    0.0746079
 3.855    0.0740613
 3.865    0.0735201
 3.875    0.0729840
 3.885    0.0724553
 3.895    0.0719298
 3.905    0.0714091
 3.915    0.0708954
 3.925    0.0703851
 3.935    0.0698805
 3.945    0.0693817
 3.955    0.0688872
 3.965    0.0683971
 3.975    0.0679125
 3.985    0.0674311
 3.995    0.0669556
 4.005    0.0664839
 4.015    0.0660170
 4.025    0.0655555
 4.035    0.0653624
 4.045    0.0659478
 4.055    0.0654664
 4.065    0.0649887
 4.075    0.0645173
 4.085    0.0640511
 4.095    0.0635872
 4.105    0.0631294
 4.115    0.0626758
 4.125    0.0622276
 4.135    0.0617814
 4.145    0.0613406
 4.155    0.0609047
 4.165    0.0604718
 4.175    0.0600437
 4.185    0.0596196
 4.195    0.0591999
 4.205    0.0587842
 4.215    0.0583720
 4.225    0.0579636
 4.235    0.0575587
 4.245    0.0571579
 4.255    0.0567614
 4.265    0.0563683
 4.275    0.0559783
 4.285    0.0555921
 4.295    0.0552098
 4.305    0.0548316
 4.315    0.0544561
 4.325    0.0540847
 4.335    0.0537160
 4.345    0.0533508
 4.355    0.0529899
 4.365    0.0526311
 4.375    0.0522758
 4.385    0.0519240
 4.395    0.0515750
 4.405    0.0512292
 4.415    0.0508872
 4.425    0.0505480
 4.435    0.0502112
 4.445    0.0498784
 4.455    0.0495482
 4.465    0.0492206
 4.475    0.0488964
 4.485    0.0485748
 4.495    0.0482559
 4.505    0.0479396
 4.515    0.0476265
 4.525    0.0473171
 4.535    0.0470089
 4.545    0.0467047
 4.555    0.0464019
 4.565    0.0461022
 4.575    0.0458063
 4.585    0.0455107
 4.595    0.0452194
 4.605    0.0449299
 4.615    0.0446433
 4.625    0.0443581
 4.635    0.0440766
 4.645    0.0437970
 4.655    0.0435203
 4.665    0.0432455
 4.675    0.0429729
 4.685    0.0427027
 4.695    0.0424344
 4.705    0.0421698
 4.715    0.0419061
 4.725    0.0416449
 4.735    0.0413861
 4.745    0.0411296
 4.755    0.0408745
 4.765    0.0406231
 4.775    0.0403710
 4.785    0.0401233
 4.795    0.0398776
 4.805    0.0396341
 4.815    0.0393912
 4.825    0.0391508
 4.835    0.0389131
 4.845    0.0386771
 4.855    0.0384425
 4.865    0.0382104
 4.875    0.0379798
 4.885    0.0377513
 4.895    0.0375247
 4.905    0.0372998
 4.915    0.0370778
 4.925    0.0368559
 4.935    0.0366363
 4.945    0.0364185
 4.955    0.0362026
 4.965    0.0359884
 4.975    0.0357754
 4.985    0.0355648
 4.995    0.0353560
 5.005    0.0351486
 5.015    0.0349427
 5.025    0.0347388
 5.035    0.0345361
 5.045    0.0343350
 5.055    0.0341360
 5.065    0.0339380
 5.075    0.0337417
 5.085    0.0335469
 5.095    0.0333537
 5.105    0.0331630
 5.115    0.0329717
 5.125    0.0327833
 5.135    0.0325960
 5.145    0.0324108
 5.155    0.0322259
 5.165    0.0320435
 5.175    0.0318617
 5.185    0.0316810
 5.195    0.0315029
 5.205    0.0313248
 5.215    0.0311489
 5.225    0.0309742
 5.235    0.0308017
 5.245    0.0306288
 5.255    0.0304578
 5.265    0.0302893
 5.275    0.0301207
 5.285    0.0299537
 5.295    0.0297883
 5.305    0.0296232
 5.315    0.0294607
 5.325    0.0292981
 5.335    0.0291385
 5.345    0.0289782
 5.355    0.0288199
 5.365    0.0286619
 5.375    0.0285066
 5.385    0.0283523
 5.395    0.0281988
 5.405    0.0280451
 5.415    0.0278938
 5.425    0.0277438
 5.435    0.0275944
 5.445    0.0274462
 5.455    0.0272993
 5.465    0.0271528
 5.475    0.0270081
 5.485    0.0268642
 5.495    0.0267213
 5.505    0.0265790
 5.515    0.0264384
 5.525    0.0262992
 5.535    0.0261600
 5.545    0.0260220
 5.555    0.0258846
 5.565    0.0257490
 5.575    0.0256138
 5.585    0.0254802
 5.595    0.0253468
 5.605    0.0252153
 5.615    0.0250843
 5.625    0.0249547
 5.635    0.0248252
 5.645    0.0246966
 5.655    0.0245693
 5.665    0.0244427
 5.675    0.0243172
 5.685    0.0241929
 5.695    0.0240687
 5.705    0.0239455
 5.715    0.0238230
 5.725    0.0237019
 5.735    0.0235818
 5.745    0.0234617
 5.755    0.0233421
 5.765    0.0232251
 5.775    0.0231079
 5.785    0.0229914
 5.795    0.0228768
 5.805    0.0227610
 5.815    0.0226467
 5.825    0.0225333
 5.835    0.0224209
 5.845    0.0223098
 5.855    0.0221988
 5.865    0.0220883
 5.875    0.0219790
 5.885    0.0218702
 5.895    0.0217622
 5.905    0.0216552
 5.915    0.0215482
 5.925    0.0214418
 5.935    0.0213373
 5.945    0.0212328
 5.955    0.0211296
 5.965    0.0210268
 5.975    0.0209240
 5.985    0.0208225
 5.995    0.0207214
 6.005    0.0206218
 6.015    0.0205220
 6.025    0.0204217
 6.035    0.0203238
 6.045    0.0202258
 6.055    0.0201296
 6.065    0.0200329
 6.075    0.0199374
 6.085    0.0198412
 6.095    0.0197474
 6.105    0.0196536
 6.115    0.0195605
 6.125    0.0194685
 6.135    0.0193761
 6.145    0.0192846
 6.155    0.0191933
 6.165    0.0191036
 6.175    0.0190141
 6.185    0.0189245
 6.195    0.0188354
 6.205    0.0187477
 6.215    0.0186598
 6.225    0.0185733
 6.235    0.0184867
 6.245    0.0184019
 6.255    0.0183147
 6.265    0.0182312
 6.275    0.0181471
 6.285    0.0180628
 6.295    0.0179798
 6.305    0.0178980
 6.315    0.0178150
 6.325    0.0177338
 6.335    0.0176525
 6.345    0.0175720
 6.355    0.0174920
 6.365    0.0174125
 6.375    0.0173337
 6.385    0.0172549
 6.395    0.0171767
 6.405    0.0170991
 6.415    0.0170221
 6.425    0.0169451
 6.435    0.0168686
 6.445    0.0167940
 6.455    0.0167188
 6.465    0.0166442
 6.475    0.0165695
 6.485    0.0164955
 6.495    0.0164221
 6.505    0.0163492
 6.515    0.0162776
 6.525    0.0162048
 6.535    0.0161325
 6.545    0.0160620
 6.555    0.0159910
 6.565    0.0159200
 6.575    0.0158513
 6.585    0.0157814
 6.595    0.0157122
 6.605    0.0156429
 6.615    0.0155760
 6.625    0.0155068
 6.635    0.0154393
 6.645    0.0153726
 6.655    0.0153063
 6.665    0.0152400
 6.675    0.0151749
 6.685    0.0151099
 6.695    0.0150430
 6.705    0.0149792
 6.715    0.0149147
 6.725    0.0148514
 6.735    0.0147875
 6.745    0.0147241
 6.755    0.0146621
 6.765    0.0145995
 6.775    0.0145368
 6.785    0.0144752
 6.795    0.0144139
 6.805    0.0143530
 6.815    0.0142927
 6.825    0.0142317
 6.835    0.0141722
 6.845    0.0141125
 6.855    0.0140539
 6.865    0.0139942
 6.875    0.0139357
 6.885    0.0138772
 6.895    0.0138200
 6.905    0.0137627
 6.915    0.0137052
 6.925    0.0136481
 6.935    0.0135925
 6.945    0.0135352
 6.955    0.0134792
 6.965    0.0134230
 6.975    0.0133686
 6.985    0.0133139
 6.995    0.0132595
 7.005    0.0132052
 7.015    0.0131496
 7.025    0.0130959
 7.035    0.0130434
 7.045    0.0129909
 7.055    0.0129385
 7.065    0.0128853
 7.075    0.0128328
 7.085    0.0127809
 7.095    0.0127295
 7.105    0.0126776
 7.115    0.0224705
 7.125    0.0234765
 7.135    0.0233864
 7.145    0.0232967
 7.155    0.0232084
 7.165    0.0231193
 7.175    0.0230314
 7.185    0.0229431
 7.195    0.0228564
 7.205    0.0227705
 7.215    0.0226833
 7.225    0.0225971
 7.235    0.0225118
 7.245    0.0224268
 7.255    0.0223415
 7.265    0.0222586
 7.275    0.0221749
 7.285    0.0220907
 7.295    0.0220088
 7.305    0.0219263
 7.315    0.0218445
 7.325    0.0217633
 7.335    0.0216821
 7.345    0.0216014
 7.355    0.0215213
 7.365    0.0214412
 7.375    0.0213619
 7.385    0.0212835
 7.395    0.0212047
 7.405    0.0211259
 7.415    0.0210482
 7.425    0.0209707
 7.435    0.0208942
 7.445    0.0208166
 7.455    0.0207412
 7.465    0.0206654
 7.475    0.0205901
 7.485    0.0205155
 7.495    0.0204409
 7.505    0.0203661
 7.515    0.0202922
 7.525    0.0202186
 7.535    0.0201447
 7.545    0.0200717
 7.555    0.0200001
 7.565    0.0199273
 7.575    0.0198568
 7.585    0.0197845
 7.595    0.0197134
 7.605    0.0196435
 7.615    0.0195730
 7.625    0.0195026
 7.635    0.0194340
 7.645    0.0193640
 7.655    0.0192954
 7.665    0.0192267
 7.675    0.0191586
 7.685    0.0190905
 7.695    0.0190242
 7.705    0.0189561
 7.715    0.0188886
 7.725    0.0188223
 7.735    0.0187561
 7.745    0.0186898
 7.755    0.0186247
 7.765    0.0185597
 7.775    0.0184939
 7.785    0.0184294
 7.795    0.0183656
 7.805    0.0183010
 7.815    0.0182378
 7.825    0.0181738
 7.835    0.0181118
 7.845    0.0180491
 7.855    0.0179863
 7.865    0.0179236
 7.875    0.0178627
 7.885    0.0178007
 7.895    0.0177391
 7.905    0.0176789
 7.915    0.0176180
 7.925    0.0175571
 7.935    0.0174980
 7.945    0.0174370
 7.955    0.0173785
 7.965    0.0173181
 7.975    0.0172596
 7.985    0.0172012
 7.995    0.0171420
 8.005    0.0170841
 8.015    0.0170269
 8.025    0.0169684
 8.035    0.0169116
 8.045    0.0168549
 8.055    0.0167982
 8.065    0.0167420
 8.075    0.0166853
 8.085    0.0166292
 8.095    0.0165731
 8.105    0.0165182
 8.115    0.0164620
 8.125    0.0164083
 8.135    0.0163528
 8.145    0.0162985
 8.155    0.0162442
 8.165    0.0161909
 8.175    0.0161367
 8.185    0.0160829
 8.195    0.0160292
 8.205    0.0159772
 8.215    0.0159242
 8.225    0.0158722
 8.235    0.0158196
 8.245    0.0157683
 8.255    0.0157158
 8.265    0.0156644
 8.275    0.0156132
 8.285    0.0155617
 8.295    0.0155115
 8.305    0.0154615
 8.315    0.0154107
 8.325    0.0153593
 8.335    0.0156937
 8.345    0.0156854
 8.355    0.0156328
 8.365    0.0155809
 8.375    0.0155296
 8.385    0.0154781
 8.395    0.0154274
 8.405    0.0153767
 8.415    0.0153259
 8.425    0.0152758
 8.435    0.0152257
 8.445    0.0151761
 8.455    0.0151253
 8.465    0.0150770
 8.475    0.0150280
 8.485    0.0149792
 8.495    0.0149307
 8.505    0.0148811
 8.515    0.0148334
 8.525    0.0147858
 8.535    0.0147375
 8.545    0.0146902
 8.555    0.0146424
 8.565    0.0145941
 8.575    0.0145481
 8.585    0.0145015
 8.595    0.0144539
 8.605    0.0144085
 8.615    0.0143620
 8.625    0.0143171
 8.635    0.0142700
 8.645    0.0142252
 8.655    0.0141787
 8.665    0.0141338
 8.675    0.0140892
 8.685    0.0140438
 8.695    0.0139996
 8.705    0.0139548
 8.715    0.0139112
 8.725    0.0138677
 8.735    0.0138235
 8.745    0.0137806
 8.755    0.0137370
 8.765    0.0136928
 8.775    0.0136505
 8.785    0.0136074
 8.795    0.0135645
 8.805    0.0135221
 8.815    0.0134798
 8.825    0.0134386
 8.835    0.0133963
 8.845    0.0133544
 8.855    0.0133126
 8.865    0.0132713
 8.875    0.0132303
 8.885    0.0131896
 8.895    0.0131485
 8.905    0.0131085
 8.915    0.0130673
 8.925    0.0130274
 8.935    0.0129862
 8.945    0.0129461
 8.955    0.0129067
 8.965    0.0128680
 8.975    0.0128279
 8.985    0.0127886
 8.995    0.0127493
 9.005    0.0127098
 9.015    0.0126716
 9.025    0.0126328
 9.035    0.0125946
 9.045    0.0125564
 9.055    0.0125182
 9.065    0.0124801
 9.075    0.0124424
 9.085    0.0124043
 9.095    0.0123667
 9.105    0.0123291
 9.115    0.0122921
 9.125    0.0122550
 9.135    0.0122175
 9.145    0.0121817
 9.155    0.0121452
 9.165    0.0121088
 9.175    0.0120725
 9.185    0.0120360
 9.195    0.0120003
 9.205    0.0119639
 9.215    0.0119286
 9.225    0.0118935
 9.235    0.0118576
 9.245    0.0118236
 9.255    0.0117872
 9.265    0.0117525
 9.275    0.0117174
 9.285    0.0116828
 9.295    0.0116481
 9.305    0.0116148
 9.315    0.0115790
 9.325    0.0115461
 9.335    0.0115122
 9.345    0.0114781
 9.355    0.0114441
 9.365    0.0114100
 9.375    0.0113779
 9.385    0.0113438
 9.395    0.0113104
 9.405    0.0112782
 9.415    0.0112454
 9.425    0.0112120
 9.435    0.0111803
 9.445    0.0111475
 9.455    0.0111147
 9.465    0.0110819
 9.475    0.0110502
 9.485    0.0110186
 9.495    0.0109858
 9.505    0.0109554
 9.515    0.0109237
 9.525    0.0108921
 9.535    0.0108605
 9.545    0.0108295
 9.555    0.0107985
 9.565    0.0107668
 9.575    0.0107364
 9.585    0.0107066
 9.595    0.0106749
 9.605    0.0106451
 9.615    0.0106141
 9.625    0.0105842
 9.635    0.0105543
 9.645    0.0105240
 9.655    0.0104936
 9.665    0.0104637
 9.675    0.0104351
 9.685    0.0104052
 9.695    0.0103754
 9.705    0.0103467
 9.715    0.0103169
 9.725    0.0102877
 9.735    0.0102596
 9.745    0.0102298
 9.755    0.0102018
 9.765    0.0101732
 9.775    0.0101452
 9.785    0.0101165
 9.795    0.0100872
 9.805    0.0100604
 9.815    0.0100317
 9.825    0.0100042
 9.835   0.00997624
 9.845   0.00994819
 9.855   0.00992076
 9.865   0.00989340
 9.875   0.00986522
 9.885   0.00983839
 9.895   0.00981157
 9.905   0.00978414
 9.915   0.00975722
 9.925   0.00972922
 9.935   0.00970299
 9.945   0.00967733
 9.955   0.00964992
 9.965   0.00962420
 9.975   0.00959681
 9.985   0.00957113
 9.995   0.00954490
10.005   0.00951798
10.015   0.00949000
10.025   0.00946076
10.035   0.00943277
10.045   0.00940413
10.055   0.00937717
10.065   0.00934920
10.075   0.00931997
10.085   0.00929314
10.095   0.00926623
10.105   0.00923823
10.115   0.00921139
10.125   0.00918332
10.135   0.00915592
10.145   0.00912897
10.155   0.00910222
10.165   0.00907478
10.175   0.00904908
10.185   0.00902171
10.195   0.00899596
10.205   0.00896852
10.215   0.00894292
10.225   0.00891669
10.235   0.00889043
10.245   0.00886411
10.255   0.00883847
10.265   0.00881230
10.275   0.00878662
10.285   0.00876098
10.295   0.00873585
10.305   0.00871024
10.315   0.00868514
10.325   0.00866017
10.335   0.00863507
10.345   0.00861008
10.355   0.00858436
10.365   0.00855927
10.375   0.00853545
10.385   0.00851040
10.395   0.00848662
10.405   0.00846149
10.415   0.00843760
10.425   0.00841316
10.435   0.00838869
10.445   0.00836482
10.455   0.00834160
10.465   0.00831711
10.475   0.00829266
10.485   0.00826935
10.495   0.00824550
10.505   0.00822226
10.515   0.00819906
10.525   0.00817519
10.535   0.00815247
10.545   0.00812915
10.555   0.00810533
10.565   0.00808330
10.575   0.00805999
10.585   0.00803739
10.595   0.00801410
10.605   0.00799196
10.615   0.00796933
10.625   0.00794724
10.635   0.00792460
10.645   0.00790256
10.655   0.00787986
10.665   0.00785778
10.675   0.00783631
10.685   0.00781360
10.695   0.00779216
10.705   0.00777009
10.715   0.00774751
10.725   0.00772718
10.735   0.00770509
10.745   0.00768360
10.755   0.00766214
10.765   0.00764067
10.775   0.00761859
10.785   0.00759837
10.795   0.00757742
10.805   0.00755594
10.815   0.00753564
10.825   0.00751355
10.835   0.00749396
10.845   0.00747302
10.855   0.00745219
10.865   0.00743191
10.875   0.00741101
10.885   0.00739067
10.895   0.00736984
10.905   0.00734955
10.915   0.00732992
10.925   0.00731082
10.935   0.00728989
10.945   0.00726970
10.955   0.00725121
10.965   0.00723024
10.975   0.00721058
10.985   0.00719153
10.995   0.00717180
11.005   0.00715095
11.015   0.00713248
11.025   0.00711396
11.035   0.00709377
11.045   0.00707454
11.055   0.00705545
11.065   0.00703523
11.075   0.00701670
11.085   0.00699823
11.095   0.00697856
11.105   0.00696066
11.115   0.00694164
11.125   0.00692316
11.135   0.00690398
11.145   0.00688550
11.155   0.00686757
11.165   0.00684853
11.175   0.00683061
11.185   0.00681159
11.195   0.00679305
11.205   0.00677582
11.215   0.00675785
11.225   0.00673881
11.235   0.00672148
11.245   0.00670357
11.255   0.00668509
11.265   0.00666780
11.275   0.00665051
11.285   0.00663324
11.295   0.00661416
11.305   0.00659746
11.315   0.00658076
11.325   0.00656225
11.335   0.00654551
11.345   0.00652762
11.355   0.00651090
11.365   0.00649308
11.375   0.00647639
11.385   0.00645968
11.395   0.00644240
11.405   0.00642506
11.415   0.00640838
11.425   0.00639167
11.435   0.00637439
11.445   0.00635819
11.455   0.00634153
11.465   0.00632483
11.475   0.00630814
11.485   0.00629204
11.495   0.00627595
11.505   0.00625926
11.515   0.00624256
11.525   0.00622763
11.535   0.00620977
11.545   0.00619488
11.555   0.00617817
11.565   0.00616315
11.575   0.00614594
11.585   0.00613102
11.595   0.00611493
11.605   0.00609879
11.615   0.00608333
11.625   0.00606727
11.635   0.00605168
11.645   0.00603627
11.655   0.00602068
11.665   0.00600522
11.675   0.00599032
11.685   0.00597351
11.695   0.00595924
11.705   0.00594375
11.715   0.00592888
11.725   0.00591331
11.735   0.00589899
11.745   0.00588413
11.755   0.00586799
11.765   0.00585428
11.775   0.00583757
11.785   0.00582452
11.795   0.00580837
11.805   0.00579466
11.815   0.00577979
11.825   0.00576481
11.835   0.00574988
11.845   0.00573559
11.855   0.00572127
11.865   0.00570697
11.875   0.00569206
11.885   0.00567775
11.895   0.00566345
11.905   0.00564915
11.915   0.00563479
11.925   0.00562110
11.935   0.00560679
11.945   0.00559191
11.955   0.00557942
11.965   0.00556503
11.975   0.00555070
11.985   0.00553702
11.995   0.00552328
12.005   0.00550899
12.015   0.00549647
12.025   0.00548157
12.035   0.00546841
12.045   0.00545412
12.055   0.00544107
12.065   0.00542786
12.075   0.00541418
12.085   0.00540049
12.095   0.00538734
12.105   0.00537483
12.115   0.00535994
12.125   0.00534730
12.135   0.00533426
12.145   0.00532169
12.155   0.00530799
12.165   0.00529486
12.175   0.00528177
12.185   0.00526865
12.195   0.00525554
12.205   0.00524301
12.215   0.00522991
12.225   0.00521737
12.235   0.00520426
12.245   0.00519171
12.255   0.00517859
12.265   0.00516609
12.275   0.00515360
12.285   0.00514104
12.295   0.00512792
12.305   0.00511715
12.315   0.00510344
12.325   0.00509153
12.335   0.00507898
12.345   0.00506648
12.355   0.00505513
12.365   0.00504260
12.375   0.00502952
12.385   0.00501696
12.395   0.00500570
12.405   0.00499373
12.415   0.00498058
12.425   0.00496990
12.435   0.00495734
12.445   0.00494544
12.455   0.00493350
12.465   0.00492101
12.475   0.00490965
12.485   0.00489772
12.495   0.00488702
12.505   0.00487440
12.515   0.00486248
12.525   0.00485118
12.535   0.00484043
12.545   0.00482795
12.555   0.00481718
12.565   0.00480527
12.575   0.00479335
12.585   0.00478264
12.595   0.00477011
12.605   0.00475935
12.615   0.00474800
12.625   0.00473791
12.635   0.00472540
12.645   0.00471468
12.655   0.00470332
12.665   0.00469201
12.675   0.00468067
12.685   0.00466991
12.695   0.00465860
12.705   0.00464850
12.715   0.00463716
12.725   0.00462635
12.735   0.00461443
12.745   0.00460429
12.755   0.00459360
12.765   0.00458288
12.775   0.00457210
12.785   0.00456141
12.795   0.00455065
12.805   0.00453995
12.815   0.00452917
12.825   0.00451906
12.835   0.00450836
12.845   0.00449756
12.855   0.00448685
12.865   0.00447672
12.875   0.00446658
12.885   0.00445524
12.895   0.00444450
12.905   0.00443559
12.915   0.00442486
12.925   0.00441472
12.935   0.00440459
12.945   0.00439383
12.955   0.00438490
12.965   0.00437357
12.975   0.00436339
12.985   0.00435263
12.995   0.00434371
13.005   0.00433359
13.015   0.00432284
13.025   0.00431390
13.035   0.00430378
13.045   0.00429306
13.055   0.00428413
13.065   0.00427397
13.075   0.00426442
13.085   0.00425429
13.095   0.00424475
13.105   0.00423522
13.115   0.00422506
13.125   0.00421613
13.135   0.00420602
13.145   0.00419703
13.155   0.00418691
13.165   0.00417795
13.175   0.00416723
13.185   0.00415888
13.195   0.00414995
13.205   0.00413976
13.215   0.00413029
13.225   0.00412015
13.235   0.00411179
13.245   0.00410228
13.255   0.00409272
13.265   0.00408371
13.275   0.00407360
13.285   0.00406525
13.295   0.00405692
13.305   0.00404614
13.315   0.00403842
13.325   0.00402889
13.335   0.00401935
13.345   0.00401097
13.355   0.00400087
13.365   0.00399312
13.375   0.00398420
13.385   0.00397581
13.395   0.00396570
13.405   0.00395675
13.415   0.00394778
13.425   0.00393946
13.435   0.00393111
13.445   0.00392155
13.455   0.00391321
13.465   0.00390485
13.475   0.00389592
13.485   0.00388696
13.495   0.00387865
13.505   0.00387026
13.515   0.00386075
13.525   0.00385179
13.535   0.00384410
13.545   0.00383570
13.555   0.00382739
13.565   0.00381963
13.575   0.00381066
13.585   0.00380115
13.595   0.00379277
13.605   0.00378503
13.615   0.00377605
13.625   0.00376890
13.635   0.00376056
13.645   0.00375218
13.655   0.00374389
13.665   0.00373495
13.675   0.00372656
13.685   0.00371883
13.695   0.00371109
13.705   0.00370330
13.715   0.00369497
13.725   0.00368602
13.735   0.00367828
13.745   0.00367113
13.755   0.00366279
13.765   0.00365445
13.775   0.00364728
13.785   0.00363951
13.795   0.00363057
13.805   0.00362343
13.815   0.00361565
13.825   0.00360730
13.835   0.00359896
13.845   0.00359062
13.855   0.00358347
13.865   0.00357572
13.875   0.00356855
13.885   0.00356083
13.895   0.00355307
13.905   0.00354593
13.915   0.00353757
13.925   0.00353042
13.935   0.00352210
13.945   0.00351547
13.955   0.00350778
13.965   0.00350063
13.975   0.00349225
13.985   0.00348570
13.995   0.00347738
14.005   0.00347081
14.015   0.00346246
14.025   0.00345531
14.035   0.00344806
14.045   0.00344095
14.055   0.00343319
14.065   0.00342545
14.075   0.00341831
14.085   0.00341114
14.095   0.00340338
14.105   0.00339625
14.115   0.00338969
14.125   0.00338193
14.135   0.00337541
14.145   0.00336826
14.155   0.00336047
14.165   0.00335392
14.175   0.00334674
14.185   0.00333963
14.195   0.00333246
14.205   0.00332531
14.215   0.00331752
14.225   0.00331158
14.235   0.00330501
14.245   0.00329852
14.255   0.00329072
14.265   0.00328356
14.275   0.00327701
14.285   0.00326924
14.295   0.00326267
14.305   0.00325613
14.315   0.00324897
14.325   0.00324363
14.335   0.00323584
14.345   0.00322871
14.355   0.00322334
14.365   0.00321555
14.375   0.00320900
14.385   0.00320247
14.395   0.00319535
14.405   0.00318937
14.415   0.00318162
14.425   0.00317625
14.435   0.00316908
14.445   0.00316253
14.455   0.00315598
14.465   0.00314943
14.475   0.00314286
14.485   0.00313690
14.495   0.00312976
14.505   0.00312441
14.515   0.00311664
14.525   0.00311064
14.535   0.00310471
14.545   0.00309814
14.555   0.00309164
14.565   0.00308499
14.575   0.00307844
14.585   0.00307306
14.595   0.00306650
14.605   0.00305939
14.615   0.00305342
14.625   0.00304746
14.635   0.00304092
14.645   0.00303373
14.655   0.00302837
14.665   0.00302240
14.675   0.00301585
14.685   0.00300987
14.695   0.00300393
14.705   0.00299740
14.715   0.00299200
14.725   0.00298543
14.735   0.00297950
14.745   0.00297290
14.755   0.00296754
14.765   0.00296220
14.775   0.00295507
14.785   0.00294905
14.795   0.00294312
14.805   0.00293657
14.815   0.00293180
14.825   0.00292582
14.835   0.00291989
14.845   0.00291330
14.855   0.00290794
14.865   0.00290259
14.875   0.00289601
14.885   0.00289006
14.895   0.00288408
14.905   0.00287932
14.915   0.00287275
14.925   0.00286678
14.935   0.00286142
14.945   0.00285603
14.955   0.00284948
14.965   0.00284472
14.975   0.00283819
14.985   0.00283218
14.995   0.00282685
15.005   0.00282152
15.015   0.00281554
15.025   0.00281016
15.035   0.00280480
15.045   0.00280003
15.055   0.00279347
15.065   0.00278690
15.075   0.00278334
15.085   0.00277678
15.095   0.00277080
15.105   0.00276545
15.115   0.00276009
15.125   0.00275528
15.135   0.00274935
15.145   0.00274398
15.155   0.00273860
15.165   0.00273266
15.175   0.00272788
15.185   0.00272194
15.195   0.00271718
15.205   0.00271121
15.215   0.00270702
15.225   0.00270047
15.235   0.00269568
15.245   0.00268976
15.255   0.00268555
15.265   0.00268081
15.275   0.00267423
15.285   0.00266944
15.295   0.00266408
15.305   0.00265813
15.315   0.00265393
15.325   0.00264799
15.335   0.00264322
15.345   0.00263845
15.355   0.00263250
15.365   0.00262771
15.375   0.00262294
15.385   0.00261762
15.395   0.00261223
15.405   0.00260686
15.415   0.00260269
15.425   0.00259790
15.435   0.00259255
15.445   0.00258778
15.455   0.00258298
15.465   0.00257703
15.475   0.00257169
15.485   0.00256690
15.495   0.00256214
15.505   0.00255795
15.515   0.00255319
15.525   0.00254784
15.535   0.00254306
15.545   0.00253827
15.555   0.00253232
15.565   0.00252700
15.575   0.00252338
15.585   0.00251744
15.595   0.00251327
15.605   0.00250849
15.615   0.00250370
15.625   0.00249893
15.635   0.00249419
15.645   0.00248881
15.655   0.00248526
15.665   0.00247930
15.675   0.00247450
15.685   0.00247033
15.695   0.00246557
15.705   0.00246082
15.715   0.00245604
15.725   0.00245068
15.735   0.00244709
15.745   0.00244227
15.755   0.00243750
15.765   0.00243273
15.775   0.00242858
15.785   0.00242379
15.795   0.00241903
15.805   0.00241423
15.815   0.00240950
15.825   0.00240474
15.835   0.00239994
15.845   0.00239637
15.855   0.00239102
15.865   0.00238743
15.875   0.00238268
15.885   0.00237789
15.895   0.00237372
15.905   0.00236833
15.915   0.00236418
15.925   0.00235999
15.935   0.00235583
15.945   0.00235109
15.955   0.00234687
15.965   0.00234275
15.975   0.00233793
15.985   0.00233437
15.995   0.00232965
16.005   0.00232485
16.015   0.00232124
16.025   0.00231649
16.035   0.00231176
16.045   0.00230754
16.055   0.00230338
16.065   0.00229862
16.075   0.00229502
16.085   0.00229027
16.095   0.00228668
16.105   0.00228192
16.115   0.00227714
16.125   0.00227416
16.135   0.00226879
16.145   0.00226523
16.155   0.00226047
16.165   0.00225688
16.175   0.00225213
16.185   0.00224854
16.195   0.00224373
16.205   0.00224019
16.215   0.00223542
16.225   0.00223184
16.235   0.00222708
16.245   0.00222348
16.255   0.00221933
16.265   0.00221516
16.275   0.00221096
16.285   0.00220622
16.295   0.00220321
16.305   0.00219789
16.315   0.00219548
16.325   0.00219132
16.335   0.00218712
16.345   0.00218299
16.355   0.00217938
16.365   0.00217461
16.375   0.00217044
16.385   0.00216627
16.395   0.00216266
16.405   0.00215913
16.415   0.00215557
16.425   0.00215076
16.435   0.00214658
16.445   0.00214303
16.455   0.00214003
16.465   0.00213588
16.475   0.00213170
16.485   0.00212810
16.495   0.00212334
16.505   0.00211979
16.515   0.00211617
16.525   0.00211263
16.535   0.00210846
16.545   0.00210427
16.555   0.00210008
16.565   0.00209772
16.575   0.00209351
16.585   0.00208940
16.595   0.00208521
16.605   0.00208164
16.615   0.00207803
16.625   0.00207448
16.635   0.00207029
16.645   0.00206792
16.655   0.00206314
16.665   0.00205960
16.675   0.00205540
16.685   0.00205187
16.695   0.00204827
16.705   0.00204466
16.715   0.00204047
16.725   0.00203808
16.735   0.00203390
16.745   0.00203037
16.755   0.00202677
16.765   0.00202318
16.775   0.00201900
16.785   0.00201545
16.795   0.00201250
16.805   0.00200829
16.815   0.00200414
16.825   0.00200176
16.835   0.00199759
16.845   0.00199398
16.855   0.00199040
16.865   0.00198742
16.875   0.00198440
16.885   0.00198030
16.895   0.00197670
16.905   0.00197252
16.915   0.00197018
16.925   0.00196595
16.935   0.00196237
16.945   0.00195883
16.955   0.00195526
16.965   0.00195228
16.975   0.00194869
16.985   0.00194453
16.995   0.00194211
17.005   0.00193797
17.015   0.00193438
17.025   0.00193202
17.035   0.00192780
17.045   0.00192483
17.055   0.00192127
17.065   0.00191888
17.075   0.00191471
17.085   0.00191118
17.095   0.00190815
17.105   0.00190458
17.115   0.00190217
17.125   0.00189744
17.135   0.00189444
17.145   0.00189144
17.155   0.00188904
17.165   0.00188484
17.175   0.00188126
17.185   0.00187828
17.195   0.00187471
17.205   0.00187172
17.215   0.00186816
17.225   0.00186577
17.235   0.00186161
17.245   0.00185923
17.255   0.00185503
17.265   0.00185269
17.275   0.00184848
17.285   0.00184491
17.295   0.00184252
17.305   0.00183952
17.315   0.00183598
17.325   0.00183303
17.335   0.00183004
17.345   0.00182645
17.355   0.00182346
17.365   0.00182107
17.375   0.00181627
17.385   0.00181452
17.395   0.00181033
17.405   0.00180795
17.415   0.00180497
17.425   0.00180140
17.435   0.00179962
17.445   0.00179545
17.455   0.00179244
17.465   0.00178886
17.475   0.00178532
17.485   0.00178350
17.495   0.00177993
17.505   0.00177817
17.515   0.00177399
17.525   0.00177041
17.535   0.00176801
17.545   0.00176444
17.555   0.00176207
17.565   0.00175847
17.575   0.00175551
17.585   0.00175311
17.595   0.00175016
17.605   0.00174657
17.615   0.00174417
17.625   0.00173999
17.635   0.00173823
17.645   0.00173404
17.655   0.00173227
17.665   0.00172865
17.675   0.00172569
17.685   0.00172331
17.695   0.00172030
17.705   0.00171791
17.715   0.00171436
17.725   0.00171199
17.735   0.00170844
17.745   0.00170602
17.755   0.00170362
17.765   0.00169947
17.775   0.00169766
17.785   0.00169412
17.795   0.00169171
17.805   0.00168871
17.815   0.00168575
17.825   0.00168277
17.835   0.00168038
17.845   0.00167738
17.855   0.00167443
17.865   0.00167203
17.875   0.00166906
17.885   0.00166609
17.895   0.00166368
17.905   0.00166069
17.915   0.00165774
17.925   0.00165473
17.935   0.00165235
17.945   0.00164940
17.955   0.00164580
17.965   0.00164400
17.975   0.00164222
17.985   0.00163806
17.995   0.00163567
18.005   0.00163388
18.015   0.00162972
18.025   0.00162732
18.035   0.00162556
18.045   0.00162258
18.055   0.00161958
18.065   0.00161658
18.075   0.00161425
18.085   0.00161242
18.095   0.00160824
18.105   0.00160588
18.115   0.00160409
18.125   0.00160109
18.135   0.00159811
18.145   0.00159573
18.155   0.00159273
18.165   0.00159095
18.175   0.00158799
18.185   0.00158501
18.195   0.00158259
18.205   0.00157965
18.215   0.00157663
18.225   0.00157487
18.235   0.00157190
18.245   0.00156951
18.255   0.00156654
18.265   0.00156357
18.275   0.00156175
18.285   0.00155936
18.295   0.00155641
18.305   0.00155463
18.315   0.00155162
18.325   0.00154864
18.335   0.00154626
18.345   0.00154443
18.355   0.00154150
18.365   0.00153971
18.375   0.00153731
18.385   0.00153372
18.395   0.00153135
18.405   0.00152957
18.415   0.00152659
18.425   0.00152363
18.435   0.00152123
18.445   0.00151886
18.455   0.00151650
18.465   0.00151469
18.475   0.00151167
18.485   0.00150992
18.495   0.00150690
18.505   0.00150395
18.515   0.00150156
18.525   0.00149978
18.535   0.00149679
18.545   0.00149442
18.555   0.00149200
18.565   0.00148904
18.575   0.00148726
18.585   0.00148486
18.595   0.00148252
18.605   0.00148010
18.615   0.00147832
18.625   0.00147532
18.635   0.00147236
18.645   0.00147056
18.655   0.00146760
18.665   0.00146577
18.675   0.00146339
18.685   0.00146163
18.695   0.00145864
18.705   0.00145625
18.715   0.00145504
18.725   0.00145210
18.735   0.00145033
18.745   0.00144734
18.755   0.00144434
18.765   0.00144254
18.775   0.00144017
18.785   0.00143778
18.795   0.00143540
18.805   0.00143361
18.815   0.00143180
18.825   0.00142885
18.835   0.00142706
18.845   0.00142407
18.855   0.00142229
18.865   0.00142047
18.875   0.00141814
18.885   0.00141455
18.895   0.00141275
18.905   0.00141096
18.915   0.00140795
18.925   0.00140619
18.935   0.00140440
18.945   0.00140201
18.955   0.00139905
18.965   0.00139727
18.975   0.00139544
18.985   0.00139307
18.995   0.00139067
19.005   0.00138890
19.015   0.00138710
19.025   0.00138413
19.035   0.00138236
19.045   0.00137937
19.055   0.00137755
19.065   0.00137578
19.075   0.00137398
19.085   0.00137103
19.095   0.00136925
19.105   0.00136745
19.115   0.00136565
19.125   0.00136265
19.135   0.00136089
19.145   0.00135908
19.155   0.00135612
19.165   0.00135431
19.175   0.00135251
19.185   0.00134956
19.195   0.00134777
19.205   0.00134603
19.215   0.00134420
19.225   0.00134119
19.235   0.00133945
19.245   0.00133763
19.255   0.00133581
19.265   0.00133283
19.275   0.00133106
19.285   0.00132928
19.295   0.00132630
19.305   0.00132450
19.315   0.00132270
19.325   0.00132092
19.335   0.00131854
19.345   0.00131675
19.355   0.00131495
19.365   0.00131256
19.375   0.00130966
19.385   0.00130841
19.395   0.00130666
19.405   0.00130362
19.415   0.00130186
19.425   0.00130127
19.435   0.00129829
19.445   0.00129652
19.455   0.00129467
19.465   0.00129290
19.475   0.00129113
19.485   0.00128875
19.495   0.00128637
19.505   0.00128455
19.515   0.00128279
19.525   0.00128037
19.535   0.00127861
19.545   0.00127741
19.555   0.00127384
19.565   0.00127326
19.575   0.00127147
19.585   0.00126851
19.595   0.00126789
19.605   0.00126493
19.615   0.00126309
19.625   0.00126132
19.635   0.00125895
19.645   0.00125713
19.655   0.00125536
19.665   0.00125301
19.675   0.00125178
19.685   0.00124880
19.695   0.00124818
19.705   0.00124523
19.715   0.00124342
19.725   0.00124227
19.735   0.00123988
19.745   0.00123867
19.755   0.00123568
19.765   0.00123386
19.775   0.00123332
19.785   0.00123034
19.795   0.00122851
19.805   0.00122675
19.815   0.00122555
19.825   0.00122315
19.835   0.00122198
19.845   0.00121901
19.855   0.00121840
19.865   0.00121664
19.875   0.00121364
19.885   0.00121244
19.895   0.00121006
19.905   0.00120887
19.915   0.00120589
19.925   0.00120530
19.935   0.00120348
19.945   0.00120171
19.955   0.00119875
19.965   0.00119752
19.975   0.00119574
19.985   0.00119517
19.995   0.00119214
20.005   0.00119098
20.015   0.00118859
20.025   0.00118739
20.035   0.00118440
20.045   0.00118383
20.055   0.00118203
20.065   0.00118028
20.075   0.00117845
20.085   0.00117607
20.095   0.00117429
20.105   0.00117370
20.115   0.00117073
20.125   0.00116892
20.135   0.00116713
20.145   0.00116594
20.155   0.00116536
20.165   0.00116236
20.175   0.00116119
20.185   0.00115880
20.195   0.00115760
20.205   0.00115522
20.215   0.00115397
20.225   0.00115224
20.235   0.00115044
20.245   0.00114924
20.255   0.00114623
20.265   0.00114566
20.275   0.00114386
20.285   0.00114209
20.295   0.00114032
20.305   0.00113793
20.315   0.00113734
20.325   0.00113555
20.335   0.00113375
20.345   0.00113136
20.355   0.00112957
20.365   0.00112898
20.375   0.00112599
20.385   0.00112478
20.395   0.00112301
20.405   0.00112243
20.415   0.00112063
20.425   0.00111884
20.435   0.00111646
20.445   0.00111587
20.455   0.00111346
20.465   0.00111231
20.475   0.00110990
20.485   0.00110812
20.495   0.00110750
20.505   0.00110576
20.515   0.00110397
20.525   0.00110272
20.535   0.00109980
20.545   0.00109917
20.555   0.00109797
20.565   0.00109503
20.575   0.00109439
20.585   0.00109321
20.595   0.00109082
20.605   0.00108964
20.615   0.00108903
20.625   0.00108604
20.635   0.00108488
20.645   0.00108429
20.655   0.00108127
20.665   0.00108010
20.675   0.00107833
20.685   0.00107773
20.695   0.00107591
20.705   0.00107417
20.715   0.00107173
20.725   0.00106996
20.735   0.00106938
20.745   0.00106758
20.755   0.00106522
20.765   0.00106460
20.775   0.00106339
20.785   0.00106161
20.795   0.00105984
20.805   0.00105922
20.815   0.00105682
20.825   0.00105505
20.835   0.00105448
20.845   0.00105273
20.855   0.00105030
20.865   0.00104852
20.875   0.00104792
20.885   0.00104672
20.895   0.00104491
20.905   0.00104311
20.915   0.00104194
20.925   0.00104017
20.935   0.00103958
20.945   0.00103779
20.955   0.00103600
20.965   0.00103480
20.975   0.00103301
20.985   0.00103121
20.995   0.00103000
21.005   0.00102941
21.015   0.00102704
21.025   0.00102525
21.035   0.00102465
21.045   0.00102287
21.055   0.00102046
21.065   0.00101989
21.075   0.00101811
21.085   0.00101693
21.095   0.00101633
21.105   0.00101449
21.115   0.00101213
21.125   0.00101096
21.135   0.00100975
21.145   0.00100852
21.155   0.00100678
21.165   0.00100498
21.175   0.00100376
21.185   0.00100323
21.195   0.00100142
21.205  0.000999646
21.215  0.000998414
21.225  0.000996659
21.235  0.000995482
21.245  0.000994867
21.255  0.000993076
21.265  0.000990706
21.275  0.000988924
21.285  0.000988316
21.295  0.000987711
21.305  0.000986512
21.315  0.000984739
21.325  0.000982342
21.335  0.000981743
21.345  0.000979964
21.355  0.000978744
21.365  0.000978170
21.375  0.000976390
21.385  0.000973992
21.395  0.000973418
21.405  0.000971614
21.415  0.000970411
21.425  0.000969827
21.435  0.000967448
21.445  0.000966851
21.455  0.000965068
21.465  0.000963874
21.475  0.000963248
21.485  0.000960862
21.495  0.000959103
21.505  0.000958516
21.515  0.000957306
21.525  0.000956736
21.535  0.000954917
21.545  0.000953171
21.555  0.000951983
21.565  0.000950112
21.575  0.000948941
21.585  0.000948337
21.595  0.000945993
21.605  0.000945389
21.615  0.000944170
21.625  0.000943005
21.635  0.000941805
21.645  0.000940025
21.655  0.000938829
21.665  0.000937028
21.675  0.000935835
21.685  0.000935266
21.695  0.000933482
21.705  0.000932270
21.715  0.000931077
21.725  0.000929280
21.735  0.000928691
21.745  0.000926925
21.755  0.000925727
21.765  0.000925105
21.775  0.000922709
21.785  0.000922145
21.795  0.000921516
21.805  0.000919151
21.815  0.000918571
21.825  0.000916183
21.835  0.000915535
21.845  0.000914397
21.855  0.000913784
21.865  0.000911989
21.875  0.000910797
21.885  0.000910205
21.895  0.000907807
21.905  0.000906049
21.915  0.000905426
21.925  0.000904239
21.935  0.000903663
21.945  0.000901263
21.955  0.000900680
21.965  0.000899472
21.975  0.000898902
21.985  0.000897084
21.995  0.000895890
22.005  0.000895318
22.015  0.000892913
22.025  0.000892318
22.035  0.000891120
22.045  0.000889375
22.055  0.000888762
22.065  0.000887574
22.075  0.000886342
22.085  0.000884569
22.095  0.000883990
22.105  0.000882794
22.115  0.000882181
22.125  0.000880417
22.135  0.000879208
22.145  0.000878018
22.155  0.000876214
22.165  0.000875668
22.175  0.000874455
22.185  0.000873830
22.195  0.000871460
22.205  0.000870867
22.215  0.000869678
22.225  0.000869058
22.235  0.000867299
22.245  0.000866107
22.255  0.000865480
22.265  0.000863130
22.275  0.000862484
22.285  0.000861341
22.295  0.000859546
22.305  0.000858958
22.315  0.000857766
22.325  0.000856555
22.335  0.000854792
22.345  0.000854183
22.355  0.000852979
22.365  0.000852411
22.375  0.000851174
22.385  0.000850602
22.395  0.000848202
22.405  0.000847635
22.415  0.000846434
22.425  0.000845831
22.435  0.000844033
22.445  0.000842855
22.455  0.000842263
22.465  0.000839858
22.475  0.000839856
22.485  0.000839295
22.495  0.000837484
22.505  0.000836252
22.515  0.000835686
22.525  0.000833312
22.535  0.000832734
22.545  0.000832110
22.555  0.000830925
22.565  0.000829721
22.575  0.000829134
22.585  0.000826753
22.595  0.000826163
22.605  0.000824999
22.615  0.000824408
22.625  0.000823188
22.635  0.000822573
22.645  0.000820814
22.655  0.000819605
22.665  0.000818377
22.675  0.000817821
22.685  0.000816621
22.695  0.000816033
22.705  0.000814270
22.715  0.000813052
22.725  0.000811877
22.735  0.000811264
22.745  0.000810039
22.755  0.000808266
22.765  0.000808264
22.775  0.000807682
22.785  0.000805882
22.795  0.000804718
22.805  0.000803490
22.815  0.000801740
22.825  0.000801725
22.835  0.000801116
22.845  0.000799317
22.855  0.000799350
22.865  0.000796968
22.875  0.000796354
22.885  0.000795217
22.895  0.000793352
22.905  0.000793397
22.915  0.000792783
22.925  0.000790999
22.935  0.000790994
22.945  0.000788627
22.955  0.000788038
22.965  0.000786823
22.975  0.000786215
22.985  0.000785021
22.995  0.000784457
23.005  0.000783245
23.015  0.000782017
23.025  0.000780290
23.035  0.000779669
23.045  0.000778525
23.055  0.000777863
23.065  0.000776673
23.075  0.000776123
23.085  0.000774883
23.095  0.000773737
23.105  0.000771922
23.115  0.000771926
23.125  0.000770112
23.135  0.000770100
23.145  0.000769522
23.155  0.000767123
23.165  0.000766542
23.175  0.000765340
23.185  0.000764732
23.195  0.000763523
23.205  0.000762939
23.215  0.000761804
23.225  0.000761167
23.235  0.000759984
23.245  0.000758802
23.255  0.000758216
23.265  0.000757005
23.275  0.000756394
23.285  0.000754602
23.295  0.000753395
23.305  0.000753418
23.315  0.000752230
23.325  0.000750435
23.335  0.000749831
23.345  0.000748654
23.355  0.000748043
23.365  0.000748050
23.375  0.000746306
23.385  0.000745076
23.395  0.000743882
23.405  0.000743311
23.415  0.000742092
23.425  0.000741484
23.435  0.000740323
23.445  0.000739701
23.455  0.000738550
23.465  0.000737336
23.475  0.000736725
23.485  0.000735520
23.495  0.000734964
23.505  0.000733750
23.515  0.000733129
23.525  0.000731950
23.535  0.000731379
23.545  0.000730175
23.555  0.000729026
23.565  0.000728341
23.575  0.000727143
23.585  0.000726610
23.595  0.000726595
23.605  0.000724845
23.615  0.000723627
23.625  0.000723018
23.635  0.000721838
23.645  0.000720651
23.655  0.000720069
23.665  0.000718848
23.675  0.000718265
23.685  0.000718232
23.695  0.000716465
23.705  0.000715287
23.715  0.000714109
23.725  0.000714083
23.735  0.000712299
23.745  0.000711717
23.755  0.000711694
23.765  0.000710517
23.775  0.000709906
23.785  0.000707516
23.795  0.000708135
23.805  0.000706901
23.815  0.000705722
23.825  0.000703934
23.835  0.000703957
23.845  0.000703336
23.855  0.000702175
23.865  0.000701563
23.875  0.000700348
23.885  0.000699160
23.895  0.000698568
23.905  0.000697391
23.915  0.000696816
23.925  0.000696801
23.935  0.000695016
23.945  0.000695046
23.955  0.000693799
23.965  0.000692598
23.975  0.000690857
23.985  0.000690849
23.995  0.000690230
24.005  0.000689014
24.015  0.000688446
24.025  0.000687248
24.035  0.000686652
24.045  0.000685487
24.055  0.000684282
24.065  0.000684270
24.075  0.000682487
24.085  0.000681890
24.095  0.000681915
24.105  0.000680718
24.115  0.000680118
24.125  0.000678925
24.135  0.000677738
24.145  0.000677131
24.155  0.000675907
24.165  0.000675922
24.175  0.000674175
24.185  0.000673553
24.195  0.000673537
24.205  0.000672373
24.215  0.000671756
24.225  0.000670566
24.235  0.000669397
24.245  0.000668775
24.255  0.000667561
24.265  0.000667580
24.275  0.000666975
24.285  0.000665183
24.295  0.000664018
24.305  0.000664040
24.315  0.000662831
24.325  0.000662227
24.335  0.000661026
24.345  0.000660447
24.355  0.000659221
24.365  0.000659258
24.375  0.000657465
24.385  0.000657467
24.395  0.000656865
24.405  0.000655655
24.415  0.000654503
24.425  0.000654504
24.435  0.000652676
24.445  0.000652090
24.455  0.000652097
24.465  0.000650886
24.475  0.000650308
24.485  0.000650310
24.495  0.000647896
24.505  0.000647330
24.515  0.000647325
24.525  0.000646164
24.535  0.000644351
24.545  0.000644334
24.555  0.000643727
24.565  0.000642590
24.575  0.000642562
24.585  0.000641958
24.595  0.000640732
24.605  0.000639550
24.615  0.000638985
24.625  0.000637823
24.635  0.000637801
24.645  0.000637185
24.655  0.000636025
24.665  0.000635411
24.675  0.000634210
24.685  0.000633005
24.695  0.000632998
24.705  0.000631853
24.715  0.000631248
24.725  0.000630619
24.735  0.000629438
24.745  0.000629427
24.755  0.000628859
24.765  0.000627657
24.775  0.000627061
24.785  0.000625882
24.795  0.000625248
24.805  0.000624638
24.815  0.000622887
24.825  0.000622914
24.835  0.000622296
24.845  0.000621086
24.855  0.000621077
24.865  0.000620520
24.875  0.000619323
24.885  0.000618124
24.895  0.000617504
24.905  0.000617500
24.915  0.000616350
24.925  0.000614521
24.935  0.000614547
24.945  0.000613959
24.955  0.000612768
24.965  0.000612749
24.975  0.000612180
24.985  0.000612155
24.995  0.000609753
25.005  0.000609195
25.015  0.000609181
25.025  0.000607953
25.035  0.000607975
25.045  0.000606194
25.055  0.000605583
25.065  0.000605609
25.075  0.000604412
25.085  0.000603215
25.095  0.000603219
25.105  0.000601455
25.115  0.000601438
25.125  0.000600859
25.135  0.000599638
25.145  0.000599660
25.155  0.000599064
25.165  0.000599066
25.175  0.000597243
25.185  0.000597253
25.195  0.000596087
25.205  0.000595498
25.215  0.000594891
25.225  0.000593111
25.235  0.000593073
25.245  0.000592505
25.255  0.000591306
25.265  0.000591282
25.275  0.000590680
25.285  0.000590678
25.295  0.000588923
25.305  0.000587740
25.315  0.000587726
25.325  0.000586518
25.335  0.000586504
25.345  0.000584748
25.355  0.000584736
25.365  0.000584131
25.375  0.000582946
25.385  0.000582960
25.395  0.000582353
25.405  0.000582329
25.415  0.000579955
25.425  0.000579976
25.435  0.000579377
25.445  0.000578166
25.455  0.000578179
25.465  0.000577601
25.475  0.000577565
25.485  0.000575817
25.495  0.000575800
25.505  0.000574596
25.515  0.000573407
25.525  0.000573441
25.535  0.000571604
25.545  0.000572243
25.555  0.000571042
25.565  0.000571036
25.575  0.000569829
25.585  0.000569241
25.595  0.000569249
25.605  0.000567440
25.615  0.000567474
25.625  0.000566240
25.635  0.000566265
25.645  0.000565065
25.655  0.000565050
25.665  0.000563281
25.675  0.000562666
25.685  0.000562711
25.695  0.000561489
25.705  0.000561499
25.715  0.000560873
25.725  0.000560893
25.735  0.000558498
25.745  0.000558530
25.755  0.000557904
25.765  0.000556710
25.775  0.000556730
25.785  0.000554913
25.795  0.000554936
25.805  0.000554306
25.815  0.000554367
25.825  0.000553144
25.835  0.000553147
25.845  0.000552569
25.855  0.000552534
25.865  0.000550158
25.875  0.000550780
25.885  0.000549570
25.895  0.000548369
25.905  0.000548369
25.915  0.000547802
25.925  0.000547754
25.935  0.000545984
25.945  0.000546004
25.955  0.000544796
25.965  0.000544820
25.975  0.000543593
25.985  0.000543605
25.995  0.000541817
26.005  0.000541808
26.015  0.000541231
26.025  0.000541191
26.035  0.000540043
26.045  0.000540027
26.055  0.000539406
26.065  0.000539449
26.075  0.000537663
26.085  0.000537638
26.095  0.000536445
26.105  0.000535245
26.115  0.000535252
26.125  0.000533464
26.135  0.000533448
26.145  0.000532883
26.155  0.000532865
26.165  0.000531668
26.175  0.000531661
26.185  0.000531065
26.195  0.000531102
26.205  0.000529259
26.215  0.000528681
26.225  0.000528122
26.235  0.000528111
26.245  0.000526891
26.255  0.000526924
26.265  0.000525121
26.275  0.000525090
26.285  0.000524522
26.295  0.000524543
26.305  0.000523311
26.315  0.000523310
26.325  0.000522759
26.335  0.000522749
26.345  0.000520347
26.355  0.000520319
26.365  0.000519782
26.375  0.000519773
26.385  0.000518569
26.395  0.000518541
26.405  0.000517954
26.415  0.000517990
26.425  0.000516172
26.435  0.000516164
26.445  0.000514965
26.455  0.000514967
26.465  0.000513816
26.475  0.000513816
26.485  0.000512007
26.495  0.000512030
26.505  0.000511413
26.515  0.000511390
26.525  0.000510218
26.535  0.000510244
26.545  0.000508439
26.555  0.000509616
26.565  0.000509646
26.575  0.000507826
26.585  0.000507859
26.595  0.000506661
26.605  0.000506605
26.615  0.000505454
26.625  0.000506069
26.635  0.000503658
26.645  0.000503669
26.655  0.000503090
26.665  0.000503094
26.675  0.000501868
26.685  0.000501869
26.695  0.000501282
26.705  0.000501268
26.715  0.000498909
26.725  0.000498884
26.735  0.000498304
26.745  0.000498324
26.755  0.000497107
26.765  0.000497103
26.775  0.000497145
26.785  0.000495319
26.795  0.000495314
26.805  0.000494719
26.815  0.000494719
26.825  0.000493523
26.835  0.000493512
26.845  0.000492938
26.855  0.000492945
26.865  0.000490552
26.875  0.000491145
26.885  0.000489954
26.895  0.000489948
26.905  0.000489961
26.915  0.000488749
26.925  0.000488744
26.935  0.000488172
26.945  0.000488145
26.955  0.000486359
26.965  0.000486361
26.975  0.000485171
26.985  0.000485188
26.995  0.000484005
27.005  0.000484009
27.015  0.000484014
27.025  0.000482213
27.035  0.000482189
27.045  0.000481586
27.055  0.000481635
27.065  0.000480394
27.075  0.000480433
27.085  0.000479839
27.095  0.000479842
27.105  0.000478630
27.115  0.000478011
27.125  0.000478020
27.135  0.000476853
27.145  0.000476843
27.155  0.000475658
27.165  0.000475654
27.175  0.000473837
27.185  0.000473868
27.195  0.000473878
27.205  0.000473280
27.215  0.000473284
27.225  0.000472094
27.235  0.000472079
27.245  0.000471454
27.255  0.000471480
27.265  0.000470315
27.275  0.000469097
27.285  0.000469077
27.295  0.000468463
27.305  0.000468486
27.315  0.000467325
27.325  0.000467306
27.335  0.000466715
27.345  0.000465509
27.355  0.000465556
27.365  0.000464935
27.375  0.000464970
27.385  0.000463717
27.395  0.000463720
27.405  0.000463136
27.415  0.000463123
27.425  0.000463135
27.435  0.000460771
27.445  0.000460773
27.455  0.000460157
27.465  0.000460138
27.475  0.000458966
27.485  0.000458936
27.495  0.000458936
27.505  0.000458379
27.515  0.000458382
27.525  0.000456600
27.535  0.000456578
27.545  0.000456591
27.555  0.000455392
27.565  0.000455377
27.575  0.000454173
27.585  0.000454205
27.595  0.000453613
27.605  0.000452371
27.615  0.000452408
27.625  0.000451774
27.635  0.000451833
27.645  0.000450648
27.655  0.000450634
27.665  0.000450640
27.675  0.000450016
27.685  0.000450009
27.695  0.000448207
27.705  0.000448259
27.715  0.000448232
27.725  0.000447015
27.735  0.000447067
27.745  0.000445820
27.755  0.000445851
27.765  0.000445843
27.775  0.000444085
27.785  0.000444045
27.795  0.000443468
27.805  0.000443444
27.815  0.000443484
27.825  0.000442274
27.835  0.000442253
27.845  0.000441668
27.855  0.000441659
27.865  0.000441694
27.875  0.000439897
27.885  0.000439322
27.895  0.000438673
27.905  0.000438680
27.915  0.000438659
27.925  0.000437527
27.935  0.000437480
27.945  0.000435710
27.955  0.000435730
27.965  0.000435716
27.975  0.000435130
27.985  0.000435134
27.995  0.000433916
28.005  0.000433952
28.015  0.000433936
28.025  0.000433328
28.035  0.000433336
28.045  0.000432135
28.055  0.000430971
28.065  0.000430930
28.075  0.000430355
28.085  0.000430337
28.095  0.000430366
28.105  0.000429134
28.115  0.000429147
28.125  0.000427339
28.135  0.000428546
28.145  0.000428602
28.155  0.000426787
28.165  0.000426792
28.175  0.000426782
28.185  0.000425599
28.195  0.000425586
28.205  0.000425006
28.215  0.000424403
28.225  0.000424400
28.235  0.000422571
28.245  0.000422607
28.255  0.000422605
28.265  0.000422017
28.275  0.000422022
28.285  0.000420824
28.295  0.000420830
28.305  0.000420794
28.315  0.000420219
28.325  0.000420230
28.335  0.000418993
28.345  0.000418414
28.355  0.000418436
28.365  0.000417258
28.375  0.000417235
28.385  0.000417265
28.395  0.000416070
28.405  0.000416039
28.415  0.000415442
28.425  0.000414232
28.435  0.000414241
28.445  0.000413657
28.455  0.000413654
28.465  0.000413654
28.475  0.000412464
28.485  0.000412457
28.495  0.000412472
28.505  0.000411864
28.515  0.000411874
28.525  0.000410678
28.535  0.000409478
28.545  0.000410115
28.555  0.000408903
28.565  0.000408922
28.575  0.000408892
28.585  0.000407706
28.595  0.000407691
28.605  0.000407682
28.615  0.000405936
28.625  0.000405916
28.635  0.000405928
28.645  0.000405323
28.655  0.000405339
28.665  0.000405352
28.675  0.000404112
28.685  0.000404143
28.695  0.000403530
28.705  0.000403561
28.715  0.000403521
28.725  0.000401160
28.735  0.000401173
28.745  0.000401181
28.755  0.000400553
28.765  0.000400556
28.775  0.000400527
28.785  0.000399351
28.795  0.000399340
28.805  0.000398769
28.815  0.000398747
28.825  0.000398738
28.835  0.000397527
28.845  0.000396971
28.855  0.000396987
28.865  0.000396975
28.875  0.000395769
28.885  0.000395782
28.895  0.000394589
28.905  0.000394582
28.915  0.000394577
28.925  0.000392771
28.935  0.000392770
28.945  0.000392808
28.955  0.000392200
28.965  0.000392216
28.975  0.000392216
28.985  0.000390996
28.995  0.000390989
29.005  0.000390989
29.015  0.000390458
29.025  0.000390447
29.035  0.000390407
29.045  0.000388625
29.055  0.000388613
29.065  0.000388603
29.075  0.000387460
29.085  0.000387442
29.095  0.000387440
29.105  0.000386237
29.115  0.000386247
29.125  0.000386838
29.135  0.000384451
29.145  0.000384439
29.155  0.000384448
29.165  0.000383860
29.175  0.000383851
29.185  0.000383846
29.195  0.000382639
29.205  0.000382699
29.215  0.000382700
29.225  0.000382118
29.235  0.000382095
29.245  0.000382066
29.255  0.000379651
29.265  0.000379675
29.275  0.000379661
29.285  0.000379084
29.295  0.000379081
29.305  0.000379058
29.315  0.000377896
29.325  0.000377903
29.335  0.000377865
29.345  0.000377344
29.355  0.000376070
29.365  0.000376121
29.375  0.000376122
29.385  0.000375520
29.395  0.000375523
29.405  0.000375491
29.415  0.000374333
29.425  0.000374335
29.435  0.000373732
29.445  0.000373759
29.455  0.000373719
29.465  0.000372525
29.475  0.000371322
29.485  0.000371327
29.495  0.000371342
29.505  0.000370748
29.515  0.000370750
29.525  0.000370767
29.535  0.000369559
29.545  0.000369558
29.555  0.000369544
29.565  0.000368948
29.575  0.000368976
29.585  0.000368958
29.595  0.000367765
29.605  0.000367165
29.615  0.000367176
29.625  0.000367191
29.635  0.000365965
29.645  0.000365997
29.655  0.000365992
29.665  0.000364797
29.675  0.000364775
29.685  0.000364792
29.695  0.000362993
29.705  0.000363013
29.715  0.000362994
29.725  0.000362995
29.735  0.000362406
29.745  0.000362419
29.755  0.000361216
29.765  0.000361191
29.775  0.000361238
29.785  0.000361222
29.795  0.000359433
29.805  0.000360607
29.815  0.000360641
29.825  0.000358811
29.835  0.000358825
29.845  0.000358828
29.855  0.000358799
29.865  0.000357630
29.875  0.000357619
29.885  0.000356424
29.895  0.000356425
29.905  0.000356465
29.915  0.000356451
29.925  0.000354667
29.935  0.000354645
29.945  0.000354642
29.955  0.000354674
29.965  0.000354028
29.975  0.000354060
29.985  0.000354059
29.995  0.000352821
30.005  0.000352860
30.015  0.000352882
30.025  0.000352277
30.035  0.000352264
30.045  0.000352261
30.055  0.000351072
30.065  0.000349876
30.075  0.000349877
30.085  0.000349900
30.095  0.000349288
30.105  0.000349291
30.115  0.000349279
30.125  0.000348092
30.135  0.000348100
30.145  0.000348116
30.155  0.000347487
30.165  0.000346310
30.175  0.000346292
30.185  0.000346263
30.195  0.000346316
30.205  0.000345692
30.215  0.000345701
30.225  0.000345734
30.235  0.000344504
30.245  0.000344530
30.255  0.000344513
30.265  0.000343939
30.275  0.000343918
30.285  0.000343942
30.295  0.000342771
30.305  0.000341526
30.315  0.000341534
30.325  0.000341565
30.335  0.000341540
30.345  0.000340932
30.355  0.000340924
30.365  0.000339732
30.375  0.000339748
30.385  0.000339750
30.395  0.000339757
30.405  0.000339160
30.415  0.000339146
30.425  0.000339176
30.435  0.000339155
30.445  0.000337358
30.455  0.000337363
30.465  0.000337363
30.475  0.000337376
30.485  0.000336163
30.495  0.000336158
30.505  0.000336168
30.515  0.000334975
30.525  0.000334977
30.535  0.000334992
30.545  0.000334390
30.555  0.000333168
30.565  0.000333175
30.575  0.000333210
30.585  0.000333195
30.595  0.000332599
30.605  0.000332599
30.615  0.000332604
30.625  0.000331397
30.635  0.000331405
30.645  0.000331368
30.655  0.000330791
30.665  0.000330813
30.675  0.000330831
30.685  0.000330812
30.695  0.000329617
30.705  0.000329059
30.715  0.000329024
30.725  0.000329037
30.735  0.000329019
30.745  0.000327837
30.755  0.000327842
30.765  0.000326657
30.775  0.000326630
30.785  0.000326651
30.795  0.000327243
30.805  0.000326029
30.815  0.000324838
30.825  0.000324839
30.835  0.000324861
30.845  0.000324840
30.855  0.000324242
30.865  0.000324269
30.875  0.000324254
30.885  0.000324228
30.895  0.000323062
30.905  0.000323040
30.915  0.000323079
30.925  0.000322471
30.935  0.000322469
30.945  0.000322435
30.955  0.000321263
30.965  0.000320069
30.975  0.000320092
30.985  0.000320051
30.995  0.000320064
31.005  0.000319450
31.015  0.000319477
31.025  0.000319460
31.035  0.000318295
31.045  0.000318289
31.055  0.000318282
31.065  0.000318290
31.075  0.000317696
31.085  0.000316490
31.095  0.000316496
31.105  0.000316498
31.115  0.000316495
31.125  0.000315927
31.135  0.000315892
31.145  0.000315942
31.155  0.000315916
31.165  0.000314711
31.175  0.000314732
31.185  0.000314748
31.195  0.000314110
31.205  0.000314111
31.215  0.000314135
31.225  0.000314112
31.235  0.000312937
31.245  0.000311729
31.255  0.000311732
31.265  0.000311724
31.275  0.000311742
31.285  0.000311118
31.295  0.000311117
31.305  0.000311169
31.315  0.000309936
31.325  0.000309951
31.335  0.000309948
31.345  0.000309923
31.355  0.000309325
31.365  0.000309362
31.375  0.000308142
31.385  0.000309362
31.395  0.000308162
31.405  0.000307560
31.415  0.000307593
31.425  0.000307567
31.435  0.000307553
31.445  0.000306394
31.455  0.000306384
31.465  0.000306389
31.475  0.000305182
31.485  0.000305167
31.495  0.000305176
31.505  0.000305188
31.515  0.000304589
31.525  0.000303377
31.535  0.000303389
31.545  0.000303376
31.555  0.000303361
31.565  0.000302816
31.575  0.000302793
31.585  0.000302789
31.595  0.000301601
31.605  0.000301592
31.615  0.000301604
31.625  0.000301614
31.635  0.000300986
31.645  0.000301026
31.655  0.000300989
31.665  0.000300999
31.675  0.000299834
31.685  0.000299224
31.695  0.000299218
31.705  0.000299207
31.715  0.000299190
31.725  0.000299242
31.735  0.000298019
31.745  0.000298012
31.755  0.000298007
31.765  0.000296829
31.775  0.000296824
31.785  0.000296842
31.795  0.000297425
31.805  0.000296226
31.815  0.000295056
31.825  0.000295065
31.835  0.000295069
31.845  0.000295015
31.855  0.000294467
31.865  0.000294451
31.875  0.000294467
31.885  0.000294448
31.895  0.000294461
31.905  0.000293256
31.915  0.000293245
31.925  0.000293301
31.935  0.000292674
31.945  0.000292668
31.955  0.000292654
31.965  0.000292641
31.975  0.000291432
31.985  0.000290279
31.995  0.000290273
32.005  0.000290877
32.015  0.000290266
32.025  0.000290870
32.035  0.000289697
32.045  0.000289672
32.055  0.000289684
32.065  0.000288509
32.075  0.000288486
32.085  0.000288491
32.095  0.000288504
32.105  0.000287908
32.115  0.000287891
32.125  0.000287868
32.135  0.000286692
32.145  0.000287898
32.155  0.000286699
32.165  0.000286101
32.175  0.000286102
32.185  0.000286130
32.195  0.000286086
32.205  0.000286135
32.215  0.000284886
32.225  0.000284929
32.235  0.000284913
32.245  0.000284312
32.255  0.000284290
32.265  0.000283709
32.275  0.000284314
32.285  0.000283147
32.295  0.000283103
32.305  0.000281944
32.315  0.000282525
32.325  0.000281921
32.335  0.000282517
32.345  0.000281332
32.355  0.000281329
32.365  0.000281360
32.375  0.000281315
32.385  0.000280140
32.395  0.000280143
32.405  0.000280163
32.415  0.000280113
32.425  0.000279578
32.435  0.000278348
32.445  0.000279534
32.455  0.000278334
32.465  0.000279557
32.475  0.000278344
32.485  0.000277772
32.495  0.000277748
32.505  0.000277776
32.515  0.000277749
32.525  0.000277763
32.535  0.000276570
32.545  0.000276561
32.555  0.000276575
32.565  0.000275971
32.575  0.000275351
32.585  0.000275959
32.595  0.000275990
32.605  0.000275366
32.615  0.000274784
32.625  0.000273602
32.635  0.000273623
32.645  0.000273565
32.655  0.000273572
32.665  0.000273600
32.675  0.000272991
32.685  0.000272987
32.695  0.000273004
32.705  0.000271805
32.715  0.000272985
32.725  0.000271788
32.735  0.000271799
32.745  0.000271791
32.755  0.000271191
32.765  0.000271187
32.775  0.000271170
32.785  0.000271190
32.795  0.000271225
32.805  0.000270009
32.815  0.000269395
32.825  0.000268859
32.835  0.000269417
32.845  0.000269408
32.855  0.000268818
32.865  0.000268211
32.875  0.000268251
32.885  0.000268212
32.895  0.000267051
32.905  0.000267613
32.915  0.000267601
32.925  0.000267033
32.935  0.000267633
32.945  0.000266447
32.955  0.000266428
32.965  0.000266437
32.975  0.000265214
32.985  0.000266424
32.995  0.000265205
33.005  0.000265220
33.015  0.000264651
33.025  0.000264650
33.035  0.000264651
33.045  0.000263449
33.055  0.000264640
33.065  0.000263455
33.075  0.000263481
33.085  0.000263450
33.095  0.000262856
33.105  0.000262853
33.115  0.000262844
33.125  0.000262872
33.135  0.000262834
33.145  0.000261656
33.155  0.000261723
33.165  0.000261089
33.175  0.000260520
33.185  0.000261095
33.195  0.000260491
33.205  0.000261095
33.215  0.000259907
33.225  0.000259896
33.235  0.000259881
33.245  0.000258693
33.255  0.000258667
33.265  0.000258712
33.275  0.000258685
33.285  0.000258678
33.295  0.000258100
33.305  0.000258090
33.315  0.000256899
33.325  0.000258067
33.335  0.000256877
33.345  0.000256887
33.355  0.000256909
33.365  0.000256294
33.375  0.000256312
33.385  0.000256315
33.395  0.000256317
33.405  0.000256286
33.415  0.000255119
33.425  0.000255104
33.435  0.000255134
33.445  0.000255100
33.455  0.000254474
33.465  0.000253899
33.475  0.000254509
33.485  0.000253916
33.495  0.000254507
33.505  0.000253339
33.515  0.000253323
33.525  0.000252754
33.535  0.000252135
33.545  0.000252726
33.555  0.000252102
33.565  0.000252728
33.575  0.000251514
33.585  0.000251540
33.595  0.000251534
33.605  0.000251515
33.615  0.000250339
33.625  0.000250344
33.635  0.000250317
33.645  0.000250354
33.655  0.000250368
33.665  0.000249746
33.675  0.000249743
33.685  0.000248530
33.695  0.000249736
33.705  0.000248539
33.715  0.000248539
33.725  0.000248555
33.735  0.000247965
33.745  0.000247949
33.755  0.000247978
33.765  0.000247951
33.775  0.000247954
33.785  0.000247953
33.795  0.000246789
33.805  0.000246761
33.815  0.000246747
33.825  0.000245561
33.835  0.000246163
33.845  0.000246188
33.855  0.000245565
33.865  0.000246179
33.875  0.000245577
33.885  0.000244956
33.895  0.000243792
33.905  0.000243815
33.915  0.000243805
33.925  0.000243761
33.935  0.000243782
33.945  0.000243795
33.955  0.000243211
33.965  0.000243186
33.975  0.000243172
33.985  0.000243163
33.995  0.000242009
34.005  0.000241983
34.015  0.000241999
34.025  0.000242023
34.035  0.000242000
34.045  0.000241416
34.055  0.000241401
34.065  0.000241377
34.075  0.000241413
34.085  0.000241397
34.095  0.000241410
34.105  0.000240217
34.115  0.000240215
34.125  0.000239040
34.135  0.000239637
34.145  0.000239007
34.155  0.000239624
34.165  0.000239612
34.175  0.000238388
34.185  0.000238419
34.195  0.000238420
34.205  0.000238414
34.215  0.000237243
34.225  0.000237845
34.235  0.000237234
34.245  0.000237830
34.255  0.000237840
34.265  0.000237247
34.275  0.000236632
34.285  0.000236642
34.295  0.000235445
34.305  0.000235451
34.315  0.000235393
34.325  0.000235451
34.335  0.000235468
34.345  0.000235453
34.355  0.000234813
34.365  0.000234851
34.375  0.000234851
34.385  0.000234852
34.395  0.000234835
34.405  0.000233641
34.415  0.000233641
34.425  0.000233650
34.435  0.000233644
34.445  0.000233020
34.455  0.000233028
34.465  0.000233075
34.475  0.000233055
34.485  0.000233060
34.495  0.000233051
34.505  0.000231848
34.515  0.000231842
34.525  0.000231260
34.535  0.000230653
34.545  0.000231302
34.555  0.000230643
34.565  0.000231279
34.575  0.000230662
34.585  0.000230108
34.595  0.000230076
34.605  0.000230075
34.615  0.000230057
34.625  0.000228868
34.635  0.000228869
34.645  0.000228907
34.655  0.000228868
34.665  0.000228871
34.675  0.000228895
34.685  0.000228324
34.695  0.000228273
34.705  0.000227090
34.715  0.000228282
34.725  0.000227111
34.735  0.000228302
34.745  0.000227075
34.755  0.000227109
34.765  0.000226532
34.775  0.000226515
34.785  0.000226488
34.795  0.000226496
34.805  0.000226498
34.815  0.000226493
34.825  0.000225271
34.835  0.000225314
34.845  0.000225314
34.855  0.000225291
34.865  0.000224726
34.875  0.000224119
34.885  0.000224725
34.895  0.000224084
34.905  0.000224721
34.915  0.000224712
34.925  0.000224135
34.935  0.000223490
34.945  0.000223503
34.955  0.000222920
34.965  0.000222291
34.975  0.000222934
34.985  0.000222343
34.995  0.000222908
35.005  0.000222877
35.015  0.000221781
35.025  0.000221758
35.035  0.000221728
35.045  0.000221725
35.055  0.000220539
35.065  0.000220562
35.075  0.000220542
35.085  0.000220540
35.095  0.000220518
35.105  0.000220535
35.115  0.000219918
35.125  0.000219941
35.135  0.000219952
35.145  0.000219957
35.155  0.000218758
35.165  0.000218780
35.175  0.000219953
35.185  0.000218727
35.195  0.000218740
35.205  0.000218171
35.215  0.000218144
35.225  0.000218101
35.235  0.000218157
35.245  0.000218144
35.255  0.000218152
35.265  0.000216964
35.275  0.000216949
35.285  0.000216962
35.295  0.000216958
35.305  0.000216955
35.315  0.000216356
35.325  0.000215782
35.335  0.000216382
35.345  0.000216383
35.355  0.000215759
35.365  0.000216375
35.375  0.000215155
35.385  0.000215190
35.395  0.000213964
35.405  0.000214006
35.415  0.000213974
35.425  0.000213990
35.435  0.000213992
35.445  0.000213969
35.455  0.000213977
35.465  0.000213387
35.475  0.000213357
35.485  0.000213396
35.495  0.000213347
35.505  0.000212167
35.515  0.000213369
35.525  0.000212215
35.535  0.000212208
35.545  0.000212202
35.555  0.000212214
35.565  0.000212211
35.575  0.000211597
35.585  0.000211641
35.595  0.000211609
35.605  0.000211631
35.615  0.000211581
35.625  0.000211590
35.635  0.000211572
35.645  0.000210388
35.655  0.000210421
35.665  0.000209810
35.675  0.000209189
35.685  0.000209816
35.695  0.000209224
35.705  0.000209778
35.715  0.000209237
35.725  0.000209800
35.735  0.000208607
35.745  0.000208603
35.755  0.000208630
35.765  0.000208579
35.775  0.000207457
35.785  0.000207449
35.795  0.000207417
35.805  0.000207453
35.815  0.000207433
35.825  0.000207424
35.835  0.000207429
35.845  0.000206808
35.855  0.000206852
35.865  0.000206852
35.875  0.000205648
35.885  0.000205640
35.895  0.000205648
35.905  0.000205657
35.915  0.000205637
35.925  0.000205650
35.935  0.000205062
35.945  0.000205053
35.955  0.000205044
35.965  0.000205024
35.975  0.000205040
35.985  0.000205051
35.995  0.000203866
36.005  0.000203843
36.015  0.000203863
36.025  0.000203871
36.035  0.000203853
36.045  0.000203869
36.055  0.000203267
36.065  0.000203252
36.075  0.000203246
36.085  0.000203254
36.095  0.000203237
36.105  0.000203241
36.115  0.000203243
36.125  0.000202056
36.135  0.000202074
36.145  0.000202061
36.155  0.000201482
36.165  0.000201468
36.175  0.000200871
36.185  0.000201447
36.195  0.000200873
36.205  0.000201461
36.215  0.000200879
36.225  0.000200280
36.235  0.000200287
36.245  0.000200265
36.255  0.000200231
36.265  0.000199089
36.275  0.000199087
36.285  0.000199108
36.295  0.000199092
36.305  0.000199108
36.315  0.000199102
36.325  0.000199092
36.335  0.000199065
36.345  0.000198456
36.355  0.000198500
36.365  0.000197269
36.375  0.000198493
36.385  0.000197290
36.395  0.000198477
36.405  0.000197276
36.415  0.000197281
36.425  0.000197278
36.435  0.000196678
36.445  0.000196738
36.455  0.000196702
36.465  0.000196696
36.475  0.000196681
36.485  0.000196705
36.495  0.000196669
36.505  0.000196675
36.515  0.000195489
36.525  0.000195479
36.535  0.000195476
36.545  0.000195533
36.555  0.000195470
36.565  0.000194925
36.575  0.000194308
36.585  0.000194884
36.595  0.000194936
36.605  0.000194323
36.615  0.000194929
36.625  0.000194322
36.635  0.000193696
36.645  0.000193699
36.655  0.000193708
36.665  0.000192525
36.675  0.000192535
36.685  0.000192510
36.695  0.000192535
36.705  0.000192536
36.715  0.000192519
36.725  0.000192545
36.735  0.000191922
36.745  0.000191906
36.755  0.000191948
36.765  0.000191933
36.775  0.000191925
36.785  0.000190739
36.795  0.000190742
36.805  0.000190756
36.815  0.000190744
36.825  0.000190749
36.835  0.000190726
36.845  0.000190749
36.855  0.000190742
36.865  0.000190152
36.875  0.000190147
36.885  0.000190138
36.895  0.000190145
36.905  0.000188936
36.915  0.000188945
36.925  0.000190161
36.935  0.000188951
36.945  0.000188895
36.955  0.000188942
36.965  0.000188353
36.975  0.000188336
36.985  0.000188356
36.995  0.000188354
37.005  0.000188352
37.015  0.000188353
37.025  0.000188322
37.035  0.000188347
37.045  0.000187171
37.055  0.000187176
37.065  0.000187153
37.075  0.000187169
37.085  0.000187185
37.095  0.000186574
37.105  0.000185961
37.115  0.000186569
37.125  0.000185955
37.135  0.000186536
37.145  0.000185979
37.155  0.000186557
37.165  0.000186567
37.175  0.000185361
37.185  0.000185357
37.195  0.000185359
37.205  0.000184180
37.215  0.000184186
37.225  0.000184199
37.235  0.000184160
37.245  0.000184168
37.255  0.000184168
37.265  0.000184177
37.275  0.000184183
37.285  0.000183587
37.295  0.000183568
37.305  0.000183571
37.315  0.000183550
37.325  0.000183583
37.335  0.000182391
37.345  0.000182402
37.355  0.000183609
37.365  0.000182379
37.375  0.000182377
37.385  0.000182382
37.395  0.000182403
37.405  0.000182408
37.415  0.000181805
37.425  0.000181795
37.435  0.000181795
37.445  0.000181787
37.455  0.000181791
37.465  0.000181783
37.475  0.000181787
37.485  0.000181790
37.495  0.000180593
37.505  0.000180603
37.515  0.000180617
37.525  0.000180599
37.535  0.000179422
37.545  0.000180006
37.555  0.000179420
37.565  0.000180036
37.575  0.000179393
37.585  0.000179978
37.595  0.000179996
37.605  0.000179400
37.615  0.000178830
37.625  0.000178810
37.635  0.000178803
37.645  0.000178792
37.655  0.000178841
37.665  0.000177602
37.675  0.000177646
37.685  0.000177641
37.695  0.000177626
37.705  0.000177638
37.715  0.000177636
37.725  0.000177619
37.735  0.000177624
37.745  0.000177612
37.755  0.000177016
37.765  0.000177032
37.775  0.000176999
37.785  0.000175838
37.795  0.000175848
37.805  0.000175850
37.815  0.000175844
37.825  0.000175830
37.835  0.000175860
37.845  0.000175854
37.855  0.000175810
37.865  0.000175215
37.875  0.000175221
37.885  0.000175277
37.895  0.000175227
37.905  0.000175243
37.915  0.000175247
37.925  0.000175261
37.935  0.000174040
37.945  0.000175251
37.955  0.000174030
37.965  0.000174068
37.975  0.000174033
37.985  0.000174042
37.995  0.000174058
38.005  0.000173437
38.015  0.000173452
38.025  0.000173452
38.035  0.000173465
38.045  0.000173460
38.055  0.000173436
38.065  0.000173471
38.075  0.000173433
38.085  0.000173472
38.095  0.000172245
38.105  0.000172245
38.115  0.000172263
38.125  0.000171082
38.135  0.000171658
38.145  0.000171053
38.155  0.000171682
38.165  0.000171665
38.175  0.000171070
38.185  0.000171662
38.195  0.000171072
38.205  0.000171628
38.215  0.000170460
38.225  0.000170440
38.235  0.000170461
38.245  0.000170498
38.255  0.000170476
38.265  0.000170474
38.275  0.000169283
38.285  0.000169283
38.295  0.000169306
38.305  0.000169275
38.315  0.000169265
38.325  0.000169286
38.335  0.000169266
38.345  0.000169266
38.355  0.000169288
38.365  0.000168676
38.375  0.000168677
38.385  0.000168704
38.395  0.000168659
38.405  0.000167470
38.415  0.000167472
38.425  0.000168686
38.435  0.000167460
38.445  0.000168705
38.455  0.000167470
38.465  0.000167458
38.475  0.000167511
38.485  0.000166885
38.495  0.000166911
38.505  0.000166897
38.515  0.000166884
38.525  0.000166901
38.535  0.000166907
38.545  0.000166895
38.555  0.000166887
38.565  0.000166912
38.575  0.000165695
38.585  0.000165678
38.595  0.000165727
38.605  0.000165697
38.615  0.000165703
38.625  0.000165710
38.635  0.000165077
38.645  0.000165094
38.655  0.000165094
38.665  0.000165135
38.675  0.000165080
38.685  0.000165099
38.695  0.000165088
38.705  0.000165074
38.715  0.000165102
38.725  0.000163922
38.735  0.000163920
38.745  0.000163921
38.755  0.000163902
38.765  0.000162705
38.775  0.000162726
38.785  0.000162726
38.795  0.000162718
38.805  0.000162759
38.815  0.000162718
38.825  0.000162721
38.835  0.000162708
38.845  0.000162704
38.855  0.000162734
38.865  0.000162112
38.875  0.000162103
38.885  0.000162121
38.895  0.000162117
38.905  0.000162100
38.915  0.000160927
38.925  0.000160921
38.935  0.000160932
38.945  0.000160958
38.955  0.000160943
38.965  0.000160949
38.975  0.000160942
38.985  0.000160929
38.995  0.000160955
39.005  0.000160953
39.015  0.000160353
39.025  0.000160344
39.035  0.000160328
39.045  0.000160328
39.055  0.000160314
39.065  0.000159138
39.075  0.000160370
39.085  0.000159133
39.095  0.000159146
39.105  0.000160337
39.115  0.000159131
39.125  0.000159143
39.135  0.000159143
39.145  0.000159155
39.155  0.000158550
39.165  0.000158530
39.175  0.000158522
39.185  0.000158527
39.195  0.000158550
39.205  0.000158518
39.215  0.000158544
39.225  0.000158525
39.235  0.000158511
39.245  0.000157358
39.255  0.000157367
39.265  0.000157366
39.275  0.000157372
39.285  0.000157345
39.295  0.000157372
39.305  0.000156166
39.315  0.000156743
39.325  0.000156163
39.335  0.000156747
39.345  0.000156774
39.355  0.000156192
39.365  0.000156783
39.375  0.000156187
39.385  0.000156754
39.395  0.000156151
39.405  0.000155561
39.415  0.000155547
39.425  0.000155561
39.435  0.000155585
39.445  0.000154370
39.455  0.000154383
39.465  0.000154413
39.475  0.000154385
39.485  0.000154385
39.495  0.000154332
39.505  0.000154375
39.515  0.000154383
39.525  0.000154347
39.535  0.000154395
39.545  0.000154397
39.555  0.000153826
39.565  0.000153780
39.575  0.000153764
39.585  0.000153753
39.595  0.000153773
39.605  0.000153780
39.615  0.000152582
39.625  0.000153767
39.635  0.000152579
39.645  0.000153769
39.655  0.000152571
39.665  0.000152601
39.675  0.000152608
39.685  0.000152589
39.695  0.000152582
39.705  0.000152614
39.715  0.000151983
39.725  0.000151951
39.735  0.000151973
39.745  0.000151983
39.755  0.000151977
39.765  0.000152006
39.775  0.000152018
39.785  0.000151980
39.795  0.000151958
39.805  0.000151990
39.815  0.000150789
39.825  0.000150844
39.835  0.000150802
39.845  0.000150772
39.855  0.000150793
39.865  0.000150179
39.875  0.000150230
39.885  0.000150174
39.895  0.000150203
39.905  0.000150211
39.915  0.000150227
39.925  0.000150214
39.935  0.000150230
39.945  0.000150199
39.955  0.000150177
39.965  0.000148994
39.975  0.000149036
39.985  0.000149020
39.995  0.000149033
40.005  0.000148986
40.015  0.000149006
40.025  0.000147807
40.035  0.000147815
40.045  0.000147810
40.055  0.000147799
40.065  0.000147815
40.075  0.000147823
40.085  0.000147830
40.095  0.000147850
40.105  0.000147839
40.115  0.000147841
40.125  0.000147849
40.135  0.000147228
40.145  0.000147215
40.155  0.000147212
40.165  0.000147212
40.175  0.000147230
40.185  0.000146007
40.195  0.000146044
40.205  0.000146033
40.215  0.000146033
40.225  0.000146028
40.235  0.000146055
40.245  0.000146062
40.255  0.000146031
40.265  0.000146031
40.275  0.000146033
40.285  0.000146011
40.295  0.000145429
40.305  0.000145433
40.315  0.000145468
40.325  0.000145440
40.335  0.000145424
40.345  0.000145442
40.355  0.000145446
40.365  0.000144229
40.375  0.000145437
40.385  0.000144248
40.395  0.000145448
40.405  0.000144262
40.415  0.000144191
40.425  0.000144266
40.435  0.000144235
40.445  0.000144266
40.455  0.000144239
40.465  0.000143665
40.475  0.000143658
40.485  0.000143658
40.495  0.000143673
40.505  0.000143662
40.515  0.000143650
40.525  0.000143659
40.535  0.000143654
40.545  0.000143636
40.555  0.000143622
40.565  0.000143633
40.575  0.000142466
40.585  0.000142449
40.595  0.000142476
40.605  0.000142477
40.615  0.000142447
40.625  0.000141250
40.635  0.000141880
40.645  0.000141261
40.655  0.000141854
40.665  0.000141843
40.675  0.000141247
40.685  0.000141852
40.695  0.000141244
40.705  0.000141867
40.715  0.000141279
40.725  0.000141884
40.735  0.000141246
40.745  0.000140667
40.755  0.000140691
40.765  0.000140696
40.775  0.000140668
40.785  0.000140676
40.795  0.000140644
40.805  0.000139478
40.815  0.000139470
40.825  0.000139525
40.835  0.000139489
40.845  0.000139475
40.855  0.000139498
40.865  0.000139472
40.875  0.000139489
40.885  0.000139464
40.895  0.000139466
40.905  0.000139451
40.915  0.000139463
40.925  0.000138887
40.935  0.000138880
40.945  0.000138899
40.955  0.000138850
40.965  0.000138880
40.975  0.000137674
40.985  0.000138880
40.995  0.000137654
41.005  0.000137691
41.015  0.000138870
41.025  0.000137687
41.035  0.000138861
41.045  0.000137702
41.055  0.000137679
41.065  0.000137690
41.075  0.000137686
41.085  0.000137692
41.095  0.000137109
41.105  0.000137072
41.115  0.000137121
41.125  0.000137090
41.135  0.000137115
41.145  0.000137104
41.155  0.000137098
41.165  0.000137093
41.175  0.000137089
41.185  0.000137078
41.195  0.000137106
41.205  0.000137081
41.215  0.000135908
41.225  0.000135889
41.235  0.000135896
41.245  0.000135887
41.255  0.000135889
41.265  0.000135896
41.275  0.000135899
41.285  0.000135300
41.295  0.000135322
41.305  0.000135293
41.315  0.000135302
41.325  0.000135336
41.335  0.000135309
41.345  0.000135320
41.355  0.000135327
41.365  0.000135288
41.375  0.000135293
41.385  0.000135279
41.395  0.000135291
41.405  0.000134105
41.415  0.000134101
41.425  0.000134122
41.435  0.000134094
41.445  0.000134101
41.455  0.000132932
41.465  0.000132924
41.475  0.000132907
41.485  0.000132902
41.495  0.000132910
41.505  0.000132918
41.515  0.000132910
41.525  0.000132907
41.535  0.000132914
41.545  0.000132915
41.555  0.000132920
41.565  0.000132883
41.575  0.000132311
41.585  0.000132337
41.595  0.000132358
41.605  0.000132300
41.615  0.000132316
41.625  0.000132324
41.635  0.000132308
41.645  0.000131153
41.655  0.000131125
41.665  0.000131110
41.675  0.000131131
41.685  0.000131120
41.695  0.000131127
41.705  0.000131152
41.715  0.000131112
41.725  0.000131146
41.735  0.000131132
41.745  0.000131119
41.755  0.000131133
41.765  0.000131127
41.775  0.000130563
41.785  0.000130554
41.795  0.000130520
41.805  0.000130527
41.815  0.000130534
41.825  0.000130550
41.835  0.000129324
41.845  0.000129347
41.855  0.000130538
41.865  0.000129359
41.875  0.000130517
41.885  0.000129339
41.895  0.000130546
41.905  0.000129335
41.915  0.000129367
41.925  0.000129327
41.935  0.000129330
41.945  0.000129325
41.955  0.000128759
41.965  0.000128741
41.975  0.000128766
41.985  0.000128745
41.995  0.000128755
42.005  0.000128768
42.015  0.000128752
42.025  0.000128773
42.035  0.000128760
42.045  0.000128756
42.055  0.000128741
42.065  0.000128728
42.075  0.000128767
42.085  0.000127563
42.095  0.000127553
42.105  0.000127533
42.115  0.000127536
42.125  0.000127550
42.135  0.000127543
42.145  0.000127570
42.155  0.000127540
42.165  0.000126979
42.175  0.000126354
42.185  0.000126971
42.195  0.000126364
42.205  0.000126926
42.215  0.000126356
42.225  0.000126988
42.235  0.000126372
42.245  0.000126947
42.255  0.000126994
42.265  0.000126346
42.275  0.000126945
42.285  0.000126377
42.295  0.000125778
42.305  0.000125777
42.315  0.000125744
42.325  0.000125777
42.335  0.000125779
42.345  0.000125786
42.355  0.000124557
42.365  0.000124556
42.375  0.000124593
42.385  0.000124571
42.395  0.000124571
42.405  0.000124567
42.415  0.000124539
42.425  0.000124567
42.435  0.000124551
42.445  0.000124573
42.455  0.000124561
42.465  0.000124574
42.475  0.000124586
42.485  0.000123974
42.495  0.000124002
42.505  0.000123950
42.515  0.000123975
42.525  0.000123980
42.535  0.000123993
42.545  0.000123956
42.555  0.000124012
42.565  0.000122780
42.575  0.000123964
42.585  0.000122799
42.595  0.000122779
42.605  0.000123984
42.615  0.000122779
42.625  0.000122765
42.635  0.000122755
42.645  0.000122787
42.655  0.000122806
42.665  0.000122793
42.675  0.000122792
42.685  0.000122782
42.695  0.000122797
42.705  0.000122213
42.715  0.000122212
42.725  0.000122155
42.735  0.000122175
42.745  0.000122183
42.755  0.000122191
42.765  0.000122168
42.775  0.000122166
42.785  0.000122215
42.795  0.000122217
42.805  0.000122218
42.815  0.000122181
42.825  0.000122178
42.835  0.000122210
42.845  0.000120984
42.855  0.000121013
42.865  0.000121022
42.875  0.000121017
42.885  0.000120997
42.895  0.000120998
42.905  0.000120381
42.915  0.000120382
42.925  0.000120427
42.935  0.000120380
42.945  0.000120403
42.955  0.000120390
42.965  0.000120388
42.975  0.000120428
42.985  0.000120393
42.995  0.000120408
43.005  0.000120397
43.015  0.000120378
43.025  0.000120356
43.035  0.000120401
43.045  0.000119230
43.055  0.000119236
43.065  0.000119197
43.075  0.000119209
43.085  0.000119200
43.095  0.000119212
43.105  0.000119236
43.115  0.000119226
43.125  0.000118023
43.135  0.000118017
43.145  0.000117985
43.155  0.000118042
43.165  0.000118013
43.175  0.000117998
43.185  0.000117990
43.195  0.000118044
43.205  0.000117990
43.215  0.000118012
43.225  0.000118049
43.235  0.000118006
43.245  0.000118032
43.255  0.000117994
43.265  0.000117999
43.275  0.000117437
43.285  0.000117470
43.295  0.000117422
43.305  0.000117422
43.315  0.000117400
43.325  0.000117402
43.335  0.000116207
43.345  0.000116222
43.355  0.000116237
43.365  0.000116225
43.375  0.000116254
43.385  0.000116223
43.395  0.000116198
43.405  0.000116232
43.415  0.000116232
43.425  0.000116210
43.435  0.000116227
43.445  0.000116217
43.455  0.000116217
43.465  0.000116223
43.475  0.000116230
43.485  0.000115642
43.495  0.000115631
43.505  0.000115621
43.515  0.000115646
43.525  0.000115627
43.535  0.000115582
43.545  0.000115615
43.555  0.000115624
43.565  0.000114426
43.575  0.000115630
43.585  0.000114474
43.595  0.000114450
43.605  0.000115607
43.615  0.000114422
43.625  0.000115625
43.635  0.000114458
43.645  0.000114427
43.655  0.000114443
43.665  0.000114431
43.675  0.000114472
43.685  0.000114442
43.695  0.000114462
43.705  0.000114444
43.715  0.000113854
43.725  0.000113878
43.735  0.000113852
43.745  0.000113845
43.755  0.000113863
43.765  0.000113846
43.775  0.000113850
43.785  0.000113837
43.795  0.000113854
43.805  0.000113847
43.815  0.000113819
43.825  0.000113842
43.835  0.000113860
43.845  0.000113837
43.855  0.000113842
43.865  0.000113846
43.875  0.000112665
43.885  0.000112677
43.895  0.000112655
43.905  0.000112632
43.915  0.000112671
43.925  0.000112653
43.935  0.000112664
43.945  0.000111468
43.955  0.000112062
43.965  0.000111464
43.975  0.000112054
43.985  0.000111461
43.995  0.000112062
